Wavelength (nm),Intensity
394.27,902.8000
394.56,896.8000
394.85,891.6000
395.14,902.2000
395.44,882.6000
395.73,892.4000
396.02,877.8000
396.31,893.4000
396.61,883.4000
396.90,883.0000
397.19,885.6000
397.48,886.6000
397.77,873.8000
398.06,880.4000
398.36,880.4000
398.65,879.0000
398.94,885.0000
399.23,874.2000
399.52,881.6000
399.82,884.4000
400.11,879.2000
400.40,885.8000
400.69,880.8000
400.98,881.6000
401.27,885.6000
401.57,878.8000
401.86,880.8000
402.15,876.6000
402.44,885.0000
402.73,880.6000
403.02,893.6000
403.32,889.0000
403.61,884.0000
403.90,886.2000
404.19,886.2000
404.48,895.4000
404.77,888.8000
405.06,889.8000
405.36,897.6000
405.65,886.4000
405.94,884.4000
406.23,893.6000
406.52,893.6000
406.81,896.4000
407.10,887.0000
407.40,884.2000
407.69,890.8000
407.98,895.0000
408.27,889.8000
408.56,886.8000
408.85,905.2000
409.14,880.4000
409.43,894.0000
409.72,891.8000
410.02,898.8000
410.31,892.8000
410.60,901.0000
410.89,895.6000
411.18,884.8000
411.47,883.4000
411.76,881.2000
412.05,902.2000
412.34,880.4000
412.63,886.2000
412.93,895.4000
413.22,897.0000
413.51,892.8000
413.80,890.8000
414.09,880.2000
414.38,887.4000
414.67,889.4000
414.96,884.2000
415.25,899.2000
415.54,884.8000
415.83,885.8000
416.12,886.0000
416.41,882.2000
416.70,891.4000
417.00,900.6000
417.29,895.4000
417.58,903.0000
417.87,884.2000
418.16,896.6000
418.45,898.0000
418.74,886.8000
419.03,896.4000
419.32,900.6000
419.61,899.6000
419.90,901.6000
420.19,895.2000
420.48,891.0000
420.77,888.8000
421.06,904.4000
421.35,891.8000
421.64,904.8000
421.93,886.4000
422.22,903.8000
422.51,909.0000
422.80,902.4000
423.09,895.4000
423.38,912.8000
423.67,897.0000
423.96,894.6000
424.25,899.0000
424.54,899.8000
424.83,895.2000
425.12,895.6000
425.41,908.4000
425.70,926.0000
425.99,901.0000
426.28,899.4000
426.57,901.6000
426.86,904.0000
427.15,900.2000
427.44,916.6000
427.73,906.6000
428.02,903.0000
428.31,912.2000
428.60,914.2000
428.89,910.8000
429.18,908.6000
429.47,913.0000
429.76,908.8000
430.05,906.8000
430.34,915.4000
430.63,923.6000
430.92,914.2000
431.21,912.8000
431.50,916.0000
431.79,910.4000
432.08,918.6000
432.37,916.4000
432.66,916.4000
432.94,921.8000
433.23,933.6000
433.52,928.2000
433.81,936.8000
434.10,949.6000
434.39,937.0000
434.68,954.2000
434.97,937.4000
435.26,940.0000
435.55,949.0000
435.84,950.6000
436.13,948.6000
436.42,950.8000
436.71,945.8000
436.99,955.4000
437.28,951.2000
437.57,964.8000
437.86,963.4000
438.15,969.2000
438.44,968.8000
438.73,989.4000
439.02,981.4000
439.31,997.8000
439.60,991.4000
439.88,991.6000
440.17,997.2000
440.46,1004.6000
440.75,1009.8000
441.04,1005.2000
441.33,1020.0000
441.62,1017.2000
441.91,1021.8000
442.20,1047.4000
442.48,1049.2000
442.77,1044.4000
443.06,1057.0000
443.35,1061.0000
443.64,1082.2000
443.93,1082.8000
444.22,1096.6000
444.50,1112.2000
444.79,1117.4000
445.08,1122.6000
445.37,1138.4000
445.66,1142.4000
445.95,1149.8000
446.24,1168.4000
446.52,1181.6000
446.81,1199.4000
447.10,1199.2000
447.39,1211.4000
447.68,1222.8000
447.97,1232.0000
448.25,1260.8000
448.54,1253.6000
448.83,1277.4000
449.12,1299.2000
449.41,1282.2000
449.69,1309.2000
449.98,1316.4000
450.27,1310.8000
450.56,1318.6000
450.85,1328.2000
451.14,1321.2000
451.42,1331.4000
451.71,1344.8000
452.00,1342.0000
452.29,1335.4000
452.58,1336.6000
452.86,1324.2000
453.15,1325.4000
453.44,1336.2000
453.73,1323.6000
454.01,1328.8000
454.30,1339.8000
454.59,1291.6000
454.88,1304.2000
455.17,1276.8000
455.45,1287.8000
455.74,1294.0000
456.03,1292.0000
456.32,1249.8000
456.60,1245.6000
456.89,1246.8000
457.18,1230.4000
457.47,1221.4000
457.76,1231.0000
458.04,1216.8000
458.33,1211.0000
458.62,1190.2000
458.91,1198.4000
459.19,1166.4000
459.48,1170.2000
459.77,1171.0000
460.06,1170.0000
460.34,1168.0000
460.63,1167.0000
460.92,1164.2000
461.20,1134.8000
461.49,1148.0000
461.78,1137.6000
462.07,1151.2000
462.35,1153.4000
462.64,1142.6000
462.93,1149.0000
463.22,1156.2000
463.50,1143.2000
463.79,1146.0000
464.08,1152.4000
464.36,1135.4000
464.65,1139.4000
464.94,1132.2000
465.22,1133.0000
465.51,1140.8000
465.80,1136.2000
466.09,1123.2000
466.37,1135.0000
466.66,1126.0000
466.95,1130.2000
467.23,1112.4000
467.52,1109.0000
467.81,1124.0000
468.09,1109.2000
468.38,1104.6000
468.67,1123.6000
468.95,1104.4000
469.24,1102.4000
469.53,1103.0000
469.81,1102.8000
470.10,1094.4000
470.39,1099.6000
470.67,1086.8000
470.96,1083.6000
471.25,1070.8000
471.53,1086.6000
471.82,1074.0000
472.11,1073.4000
472.39,1061.6000
472.68,1057.2000
472.97,1050.4000
473.25,1070.4000
473.54,1055.6000
473.82,1060.8000
474.11,1054.4000
474.40,1053.4000
474.68,1065.8000
474.97,1060.2000
475.26,1039.4000
475.54,1035.2000
475.83,1038.0000
476.11,1050.2000
476.40,1036.6000
476.69,1044.8000
476.97,1049.4000
477.26,1039.8000
477.55,1046.2000
477.83,1028.8000
478.12,1032.2000
478.40,1040.8000
478.69,1040.8000
478.98,1035.8000
479.26,1036.4000
479.55,1053.0000
479.83,1028.6000
480.12,1039.0000
480.40,1032.2000
480.69,1039.2000
480.98,1052.0000
481.26,1042.8000
481.55,1031.8000
481.83,1039.6000
482.12,1041.6000
482.41,1045.0000
482.69,1048.4000
482.98,1043.0000
483.26,1063.8000
483.55,1046.6000
483.83,1052.4000
484.12,1047.2000
484.40,1054.6000
484.69,1041.2000
484.98,1045.8000
485.26,1050.6000
485.55,1053.4000
485.83,1042.8000
486.12,1059.4000
486.40,1042.0000
486.69,1055.8000
486.97,1058.0000
487.26,1051.2000
487.54,1058.4000
487.83,1062.0000
488.11,1055.8000
488.40,1074.6000
488.68,1078.2000
488.97,1076.6000
489.26,1067.2000
489.54,1075.8000
489.83,1075.6000
490.11,1075.2000
490.40,1082.4000
490.68,1083.0000
490.97,1077.0000
491.25,1079.2000
491.54,1081.8000
491.82,1086.8000
492.11,1081.6000
492.39,1095.8000
492.68,1087.2000
492.96,1108.4000
493.24,1094.4000
493.53,1093.8000
493.81,1111.2000
494.10,1104.6000
494.38,1104.8000
494.67,1118.0000
494.95,1124.4000
495.24,1122.2000
495.52,1128.4000
495.81,1131.0000
496.09,1127.2000
496.38,1117.8000
496.66,1134.8000
496.95,1139.2000
497.23,1135.2000
497.51,1136.2000
497.80,1146.2000
498.08,1154.0000
498.37,1142.6000
498.65,1153.8000
498.94,1175.0000
499.22,1164.2000
499.51,1163.2000
499.79,1158.8000
500.07,1169.8000
500.36,1173.6000
500.64,1173.6000
500.93,1182.6000
501.21,1182.8000
501.50,1186.0000
501.78,1187.8000
502.06,1181.2000
502.35,1188.4000
502.63,1196.4000
502.92,1200.4000
503.20,1201.0000
503.48,1214.4000
503.77,1224.4000
504.05,1217.6000
504.34,1210.2000
504.62,1221.8000
504.90,1229.8000
505.19,1227.2000
505.47,1230.6000
505.76,1225.2000
506.04,1235.6000
506.32,1250.6000
506.61,1233.0000
506.89,1252.2000
507.17,1253.4000
507.46,1251.4000
507.74,1257.8000
508.03,1254.6000
508.31,1265.0000
508.59,1258.6000
508.88,1272.4000
509.16,1274.2000
509.44,1279.2000
509.73,1292.2000
510.01,1279.8000
510.29,1289.2000
510.58,1264.4000
510.86,1290.8000
511.14,1294.0000
511.43,1281.6000
511.71,1295.8000
511.99,1294.8000
512.28,1301.0000
512.56,1293.8000
512.84,1304.0000
513.13,1302.4000
513.41,1312.6000
513.69,1318.2000
513.98,1308.2000
514.26,1329.8000
514.54,1323.8000
514.83,1323.8000
515.11,1323.2000
515.39,1334.2000
515.68,1330.8000
515.96,1326.4000
516.24,1340.2000
516.53,1330.2000
516.81,1353.6000
517.09,1326.8000
517.37,1331.4000
517.66,1337.0000
517.94,1340.0000
518.22,1350.6000
518.51,1347.6000
518.79,1337.8000
519.07,1334.6000
519.35,1353.6000
519.64,1351.4000
519.92,1360.8000
520.20,1348.0000
520.48,1363.0000
520.77,1358.2000
521.05,1366.2000
521.33,1368.8000
521.62,1360.2000
521.90,1377.6000
522.18,1379.8000
522.46,1367.4000
522.75,1388.8000
523.03,1372.2000
523.31,1376.8000
523.59,1393.4000
523.88,1383.2000
524.16,1382.2000
524.44,1402.6000
524.72,1402.0000
525.00,1404.0000
525.29,1395.0000
525.57,1402.2000
525.85,1387.0000
526.13,1390.4000
526.42,1378.2000
526.70,1403.4000
526.98,1401.6000
527.26,1380.8000
527.54,1382.8000
527.83,1388.6000
528.11,1401.2000
528.39,1408.4000
528.67,1424.6000
528.95,1414.6000
529.24,1409.0000
529.52,1416.8000
529.80,1429.2000
530.08,1417.6000
530.36,1424.4000
530.65,1405.0000
530.93,1429.8000
531.21,1410.4000
531.49,1435.4000
531.77,1427.2000
532.05,1427.2000
532.34,1421.2000
532.62,1429.4000
532.90,1430.2000
533.18,1426.2000
533.46,1424.0000
533.74,1430.0000
534.03,1447.2000
534.31,1431.8000
534.59,1443.0000
534.87,1436.6000
535.15,1423.6000
535.43,1456.0000
535.71,1449.6000
536.00,1440.0000
536.28,1439.6000
536.56,1443.0000
536.84,1447.2000
537.12,1446.0000
537.40,1433.4000
537.68,1456.2000
537.97,1459.6000
538.25,1450.6000
538.53,1443.6000
538.81,1460.4000
539.09,1458.8000
539.37,1465.6000
539.65,1450.0000
539.93,1476.8000
540.21,1456.4000
540.50,1454.8000
540.78,1466.4000
541.06,1463.2000
541.34,1466.0000
541.62,1459.6000
541.90,1492.8000
542.18,1474.6000
542.46,1495.8000
542.74,1472.0000
543.02,1477.8000
543.30,1485.0000
543.58,1497.8000
543.87,1478.8000
544.15,1480.6000
544.43,1498.6000
544.71,1474.8000
544.99,1495.4000
545.27,1484.0000
545.55,1485.4000
545.83,1493.0000
546.11,1505.8000
546.39,1497.0000
546.67,1517.4000
546.95,1483.8000
547.23,1506.2000
547.51,1499.8000
547.79,1507.4000
548.07,1517.4000
548.35,1504.4000
548.63,1504.4000
548.91,1526.6000
549.20,1515.4000
549.48,1529.8000
549.76,1533.2000
550.04,1516.4000
550.32,1543.4000
550.60,1530.6000
550.88,1519.0000
551.16,1545.0000
551.44,1533.2000
551.72,1540.8000
552.00,1544.6000
552.28,1555.6000
552.56,1566.6000
552.84,1561.4000
553.12,1558.6000
553.40,1557.8000
553.68,1547.4000
553.96,1560.2000
554.24,1544.6000
554.52,1571.6000
554.80,1567.6000
555.08,1559.4000
555.36,1561.6000
555.64,1567.2000
555.92,1575.6000
556.19,1580.8000
556.47,1583.8000
556.75,1576.0000
557.03,1590.8000
557.31,1595.0000
557.59,1590.4000
557.87,1579.6000
558.15,1577.8000
558.43,1599.0000
558.71,1617.6000
558.99,1603.8000
559.27,1608.8000
559.55,1602.6000
559.83,1600.6000
560.11,1622.2000
560.39,1595.4000
560.67,1624.4000
560.95,1628.0000
561.23,1620.6000
561.50,1613.4000
561.78,1619.4000
562.06,1611.6000
562.34,1635.4000
562.62,1640.0000
562.90,1630.2000
563.18,1634.2000
563.46,1648.6000
563.74,1633.4000
564.02,1662.2000
564.30,1648.2000
564.57,1638.4000
564.85,1639.4000
565.13,1670.2000
565.41,1648.8000
565.69,1669.2000
565.97,1658.6000
566.25,1668.0000
566.53,1655.8000
566.81,1673.2000
567.08,1674.4000
567.36,1668.6000
567.64,1668.4000
567.92,1689.2000
568.20,1670.0000
568.48,1688.2000
568.76,1688.8000
569.04,1714.4000
569.31,1691.0000
569.59,1694.4000
569.87,1708.2000
570.15,1695.8000
570.43,1705.0000
570.71,1710.4000
570.99,1681.4000
571.26,1716.6000
571.54,1715.8000
571.82,1726.8000
572.10,1731.0000
572.38,1715.8000
572.66,1715.6000
572.93,1723.2000
573.21,1729.4000
573.49,1728.2000
573.77,1731.0000
574.05,1715.4000
574.32,1748.0000
574.60,1739.6000
574.88,1729.0000
575.16,1771.0000
575.44,1751.8000
575.71,1735.4000
575.99,1766.0000
576.27,1768.6000
576.55,1760.4000
576.83,1779.2000
577.10,1770.6000
577.38,1761.8000
577.66,1763.2000
577.94,1783.2000
578.22,1770.2000
578.49,1790.2000
578.77,1781.0000
579.05,1802.8000
579.33,1786.2000
579.60,1796.8000
579.88,1792.0000
580.16,1802.6000
580.44,1798.4000
580.72,1798.0000
580.99,1811.4000
581.27,1843.6000
581.55,1820.4000
581.83,1844.2000
582.10,1833.2000
582.38,1850.2000
582.66,1854.0000
582.94,1856.2000
583.21,1865.4000
583.49,1877.6000
583.77,1876.2000
584.04,1873.6000
584.32,1887.4000
584.60,1885.6000
584.88,1880.8000
585.15,1896.8000
585.43,1901.8000
585.71,1903.2000
585.98,1921.4000
586.26,1916.2000
586.54,1907.4000
586.82,1937.8000
587.09,1945.4000
587.37,1935.0000
587.65,1941.4000
587.92,1959.8000
588.20,1962.6000
588.48,1970.4000
588.75,1945.2000
589.03,1976.4000
589.31,1943.8000
589.59,1965.8000
589.86,1997.0000
590.14,1989.6000
590.42,1998.0000
590.69,2000.8000
590.97,2005.0000
591.25,1992.8000
591.52,2006.0000
591.80,2028.6000
592.08,2006.8000
592.35,2026.6000
592.63,2033.2000
592.91,2033.8000
593.18,2047.0000
593.46,2032.6000
593.73,2048.6000
594.01,2047.0000
594.29,2079.4000
594.56,2072.8000
594.84,2038.8000
595.12,2077.2000
595.39,2067.6000
595.67,2066.0000
595.95,2074.4000
596.22,2074.4000
596.50,2079.2000
596.77,2081.6000
597.05,2089.2000
597.33,2106.6000
597.60,2087.0000
597.88,2090.6000
598.15,2102.6000
598.43,2111.6000
598.71,2126.8000
598.98,2135.2000
599.26,2128.6000
599.53,2119.6000
599.81,2144.6000
600.09,2135.4000
600.36,2141.4000
600.64,2130.4000
600.91,2136.8000
601.19,2145.2000
601.47,2147.4000
601.74,2137.4000
602.02,2147.8000
602.29,2153.4000
602.57,2165.4000
602.84,2168.2000
603.12,2166.2000
603.40,2174.8000
603.67,2181.2000
603.95,2168.0000
604.22,2185.4000
604.50,2170.0000
604.77,2170.4000
605.05,2167.6000
605.32,2186.8000
605.60,2199.0000
605.87,2169.2000
606.15,2196.2000
606.42,2190.0000
606.70,2188.8000
606.98,2189.6000
607.25,2205.6000
607.53,2205.6000
607.80,2226.8000
608.08,2200.4000
608.35,2227.0000
608.63,2215.4000
608.90,2219.4000
609.18,2213.4000
609.45,2211.2000
609.73,2218.0000
610.00,2225.6000
610.28,2218.8000
610.55,2217.8000
610.83,2210.2000
611.10,2217.2000
611.38,2201.0000
611.65,2222.8000
611.93,2208.2000
612.20,2220.4000
612.48,2207.2000
612.75,2230.6000
613.03,2225.2000
613.30,2237.8000
613.57,2227.0000
613.85,2231.0000
614.12,2243.0000
614.40,2242.0000
614.67,2222.0000
614.95,2248.4000
615.22,2209.8000
615.50,2210.0000
615.77,2226.8000
616.05,2208.8000
616.32,2197.4000
616.59,2212.4000
616.87,2217.2000
617.14,2209.4000
617.42,2206.2000
617.69,2212.0000
617.97,2210.0000
618.24,2213.2000
618.51,2201.0000
618.79,2196.2000
619.06,2193.8000
619.34,2202.0000
619.61,2194.2000
619.88,2195.6000
620.16,2205.8000
620.43,2195.2000
620.71,2196.8000
620.98,2198.0000
621.26,2188.0000
621.53,2192.6000
621.80,2173.8000
622.08,2188.0000
622.35,2151.2000
622.62,2174.6000
622.90,2179.4000
623.17,2148.6000
623.45,2148.0000
623.72,2165.8000
623.99,2146.8000
624.27,2146.4000
624.54,2154.8000
624.81,2150.4000
625.09,2146.4000
625.36,2137.2000
625.64,2151.8000
625.91,2147.2000
626.18,2126.0000
626.46,2120.8000
626.73,2147.0000
627.00,2125.2000
627.28,2120.2000
627.55,2125.2000
627.82,2101.6000
628.10,2103.8000
628.37,2116.0000
628.64,2111.0000
628.92,2098.4000
629.19,2092.4000
629.46,2106.0000
629.74,2111.8000
630.01,2096.4000
630.28,2133.4000
630.56,2116.0000
630.83,2123.4000
631.10,2133.4000
631.37,2125.4000
631.65,2089.6000
631.92,2095.8000
632.19,2090.2000
632.47,2080.0000
632.74,2056.8000
633.01,2082.6000
633.28,2063.6000
633.56,2047.6000
633.83,2035.4000
634.10,2048.2000
634.38,2057.0000
634.65,2049.2000
634.92,2050.4000
635.19,2056.6000
635.47,2051.6000
635.74,2031.6000
636.01,2031.4000
636.28,2030.0000
636.56,2007.6000
636.83,1998.0000
637.10,1999.8000
637.37,2008.0000
637.65,1990.4000
637.92,1969.8000
638.19,1950.2000
638.46,1987.8000
638.74,1968.8000
639.01,1967.8000
639.28,1943.0000
639.55,1971.0000
639.83,1960.2000
640.10,1945.6000
640.37,1941.2000
640.64,1939.2000
640.91,1929.2000
641.19,1938.2000
641.46,1929.8000
641.73,1935.8000
642.00,1909.8000
642.28,1930.2000
642.55,1922.6000
642.82,1923.2000
643.09,1903.6000
643.36,1892.6000
643.63,1891.4000
643.91,1902.6000
644.18,1886.4000
644.45,1869.6000
644.72,1890.8000
644.99,1860.6000
645.27,1855.8000
645.54,1838.4000
645.81,1877.0000
646.08,1849.2000
646.35,1830.4000
646.62,1846.0000
646.90,1851.4000
647.17,1842.8000
647.44,1834.4000
647.71,1834.0000
647.98,1801.0000
648.25,1827.4000
648.52,1810.2000
648.80,1810.0000
649.07,1800.4000
649.34,1800.6000
649.61,1806.0000
649.88,1788.4000
650.15,1786.4000
650.42,1752.0000
650.69,1781.6000
650.97,1769.6000
651.24,1762.4000
651.51,1753.0000
651.78,1744.6000
652.05,1737.2000
652.32,1759.0000
652.59,1743.6000
652.86,1742.0000
653.13,1712.2000
653.41,1730.2000
653.68,1718.4000
653.95,1718.4000
654.22,1723.2000
654.49,1698.4000
654.76,1711.2000
655.03,1686.4000
655.30,1688.2000
655.57,1682.6000
655.84,1701.8000
656.11,1684.4000
656.38,1687.0000
656.66,1680.2000
656.93,1672.6000
657.20,1659.8000
657.47,1670.0000
657.74,1659.6000
658.01,1659.4000
658.28,1632.6000
658.55,1647.6000
658.82,1646.6000
659.09,1642.6000
659.36,1624.4000
659.63,1616.6000
659.90,1604.4000
660.17,1625.2000
660.44,1615.8000
660.71,1613.4000
660.98,1593.4000
661.25,1585.2000
661.52,1591.2000
661.79,1578.8000
662.06,1573.6000
662.33,1579.8000
662.60,1581.8000
662.87,1568.0000
663.14,1560.2000
663.41,1553.6000
663.68,1556.8000
663.95,1557.0000
664.22,1554.4000
664.49,1537.4000
664.76,1534.6000
665.03,1520.2000
665.30,1527.0000
665.57,1522.2000
665.84,1510.8000
666.11,1507.8000
666.38,1501.8000
666.65,1510.4000
666.92,1517.6000
667.19,1502.0000
667.46,1505.2000
667.73,1500.8000
668.00,1490.6000
668.27,1485.2000
668.54,1478.0000
668.81,1480.6000
669.08,1478.6000
669.35,1469.6000
669.62,1475.8000
669.89,1472.2000
670.16,1469.8000
670.42,1461.2000
670.69,1453.8000
670.96,1462.4000
671.23,1436.6000
671.50,1430.6000
671.77,1433.6000
672.04,1438.6000
672.31,1424.2000
672.58,1421.4000
672.85,1428.4000
673.12,1418.0000
673.39,1415.8000
673.65,1418.2000
673.92,1411.2000
674.19,1415.4000
674.46,1400.6000
674.73,1404.2000
675.00,1391.6000
675.27,1405.0000
675.54,1400.6000
675.81,1401.4000
676.07,1376.8000
676.34,1372.8000
676.61,1374.2000
676.88,1365.2000
677.15,1361.6000
677.42,1373.4000
677.69,1367.0000
677.96,1354.6000
678.22,1357.4000
678.49,1336.8000
678.76,1343.6000
679.03,1341.6000
679.30,1334.2000
679.57,1335.6000
679.83,1348.6000
680.10,1325.8000
680.37,1341.4000
680.64,1345.2000
680.91,1325.2000
681.18,1316.2000
681.44,1313.8000
681.71,1312.8000
681.98,1308.0000
682.25,1315.6000
682.52,1307.4000
682.79,1312.6000
683.05,1317.4000
683.32,1302.2000
683.59,1293.6000
683.86,1294.4000
684.13,1289.8000
684.39,1276.4000
684.66,1286.4000
684.93,1271.2000
685.20,1277.2000
685.47,1262.2000
685.73,1273.2000
686.00,1260.6000
686.27,1274.4000
686.54,1262.8000
686.80,1258.8000
687.07,1243.8000
687.34,1241.2000
687.61,1242.2000
687.88,1242.0000
688.14,1239.6000
688.41,1259.2000
688.68,1225.6000
688.95,1236.0000
689.21,1239.4000
689.48,1244.0000
689.75,1227.6000
690.02,1226.2000
690.28,1227.4000
690.55,1231.8000
690.82,1210.4000
691.08,1217.0000
691.35,1206.0000
691.62,1215.0000
691.89,1207.6000
692.15,1206.8000
692.42,1196.6000
692.69,1192.4000
692.95,1199.2000
693.22,1201.4000
693.49,1193.6000
693.76,1200.4000
694.02,1189.8000
694.29,1186.4000
694.56,1178.6000
694.82,1193.0000
695.09,1172.0000
695.36,1175.0000
695.62,1182.6000
695.89,1188.6000
696.16,1181.2000
696.43,1182.0000
696.69,1176.0000
696.96,1184.2000
697.23,1172.8000
697.49,1170.4000
697.76,1177.6000
698.03,1151.0000
698.29,1157.4000
698.56,1152.2000
698.82,1162.6000
699.09,1155.8000
699.36,1159.8000
699.62,1149.0000
699.89,1151.0000
700.16,1145.8000
700.42,1162.8000
700.69,1165.4000
700.96,1157.0000
701.22,1148.2000
701.49,1147.4000
701.75,1153.2000
702.02,1136.8000
702.29,1131.6000
702.55,1127.6000
702.82,1150.0000
703.09,1146.2000
703.35,1158.2000
703.62,1140.4000
703.88,1144.0000
704.15,1128.8000
704.42,1139.2000
704.68,1117.8000
704.95,1143.4000
705.21,1123.4000
705.48,1143.4000
705.75,1142.2000
706.01,1131.4000
706.28,1133.2000
706.54,1119.0000
706.81,1123.0000
707.07,1133.6000
707.34,1122.6000
707.61,1126.4000
707.87,1129.2000
708.14,1125.2000
708.40,1119.4000
708.67,1121.8000
708.93,1124.0000
709.20,1120.4000
709.46,1114.6000
709.73,1121.2000
709.99,1124.8000
710.26,1113.0000
710.53,1110.8000
710.79,1107.2000
711.06,1123.2000
711.32,1174.6000
711.59,1119.4000
711.85,1129.0000
712.12,1117.6000
712.38,1111.4000
712.65,1114.6000
712.91,1124.6000
713.18,1110.2000
713.44,1119.2000
713.71,1104.2000
713.97,1117.6000
714.24,1112.4000
714.50,1116.0000
714.77,1125.0000
715.03,1116.4000
715.30,1112.2000
715.56,1121.8000
715.83,1111.8000
716.09,1117.0000
716.36,1135.0000
716.62,1107.4000
716.89,1096.0000
717.15,1103.6000
717.42,1088.4000
717.68,1090.4000
717.94,1082.0000
718.21,1089.4000
718.47,1092.6000
718.74,1091.2000
719.00,1099.4000
719.27,1094.8000
719.53,1078.6000
719.80,1099.6000
720.06,1091.4000
720.32,1108.4000
720.59,1104.8000
720.85,1093.8000
721.12,1106.0000
721.38,1107.4000
721.65,1106.8000
721.91,1109.4000
722.17,1113.4000
722.44,1126.2000
722.70,1106.4000
722.97,1107.6000
723.23,1105.2000
723.49,1107.8000
723.76,1104.2000
724.02,1110.0000
724.29,1117.2000
724.55,1105.8000
724.81,1110.2000
725.08,1116.0000
725.34,1110.0000
725.61,1123.2000
725.87,1120.8000
726.13,1103.6000
726.40,1127.4000
726.66,1117.0000
726.92,1119.8000
727.19,1114.4000
727.45,1116.8000
727.71,1122.4000
727.98,1124.6000
728.24,1124.4000
728.51,1142.0000
728.77,1120.4000
729.03,1119.6000
729.30,1127.6000
729.56,1126.0000
729.82,1143.8000
730.09,1124.4000
730.35,1129.0000
730.61,1127.2000
730.88,1128.6000
731.14,1123.2000
731.40,1135.6000
731.67,1139.0000
731.93,1147.8000
732.19,1154.0000
732.45,1153.6000
732.72,1155.2000
732.98,1161.6000
733.24,1166.8000
733.51,1165.6000
733.77,1168.0000
734.03,1175.8000
734.30,1183.0000
734.56,1179.6000
734.82,1175.0000
735.08,1180.2000
735.35,1175.8000
735.61,1186.8000
735.87,1171.8000
736.14,1195.2000
736.40,1179.6000
736.66,1188.0000
736.92,1204.8000
737.19,1186.6000
737.45,1201.0000
737.71,1196.0000
737.97,1186.2000
738.24,1191.2000
738.50,1185.2000
738.76,1184.2000
739.02,1185.8000
739.29,1191.0000
739.55,1205.8000
739.81,1203.2000
740.07,1188.4000
740.33,1204.2000
740.60,1203.4000
740.86,1213.4000
741.12,1202.4000
741.38,1203.6000
741.65,1211.0000
741.91,1200.8000
742.17,1202.6000
742.43,1212.0000
742.69,1207.8000
742.96,1225.6000
743.22,1234.0000
743.48,1213.0000
743.74,1218.2000
744.00,1212.4000
744.26,1205.8000
744.53,1220.6000
744.79,1202.8000
745.05,1224.0000
745.31,1221.4000
745.57,1230.8000
745.84,1226.8000
746.10,1220.6000
746.36,1229.6000
746.62,1236.4000
746.88,1232.0000
747.14,1243.2000
747.40,1241.4000
747.67,1225.8000
747.93,1239.2000
748.19,1236.0000
748.45,1239.6000
748.71,1233.6000
748.97,1241.0000
749.23,1237.8000
749.50,1239.6000
749.76,1233.8000
750.02,1245.0000
750.28,1230.6000
750.54,1232.6000
750.80,1242.4000
751.06,1224.6000
751.32,1227.8000
751.59,1239.0000
751.85,1231.4000
752.11,1241.0000
752.37,1261.0000
752.63,1233.2000
752.89,1235.4000
753.15,1246.4000
753.41,1232.8000
753.67,1224.6000
753.93,1234.8000
754.19,1237.2000
754.46,1251.4000
754.72,1235.2000
754.98,1224.8000
755.24,1240.6000
755.50,1235.4000
755.76,1240.2000
756.02,1236.4000
756.28,1224.6000
756.54,1234.4000
756.80,1236.6000
757.06,1233.4000
757.32,1220.0000
757.58,1235.0000
757.84,1249.8000
758.10,1233.4000
758.36,1216.8000
758.62,1228.2000
758.88,1196.8000
759.14,1171.4000
759.40,1113.4000
759.66,1069.0000
759.92,1015.8000
760.18,987.0000
760.44,979.0000
760.70,988.6000
760.96,1006.6000
761.22,1047.6000
761.48,1072.8000
761.74,1098.8000
762.00,1092.6000
762.26,1089.6000
762.52,1064.8000
762.78,1056.2000
763.04,1043.4000
763.30,1059.0000
763.56,1050.2000
763.82,1070.8000
764.08,1074.0000
764.34,1098.6000
764.60,1095.2000
764.86,1114.8000
765.12,1120.6000
765.38,1134.4000
765.64,1144.2000
765.90,1169.8000
766.16,1144.6000
766.42,1159.8000
766.68,1170.6000
766.94,1187.2000
767.20,1192.8000
767.46,1196.4000
767.72,1194.0000
767.98,1204.2000
768.23,1202.2000
768.49,1190.6000
768.75,1220.8000
769.01,1210.8000
769.27,1202.2000
769.53,1204.8000
769.79,1220.0000
770.05,1207.8000
770.31,1208.2000
770.57,1218.2000
770.83,1221.8000
771.08,1213.8000
771.34,1204.8000
771.60,1214.2000
771.86,1206.4000
772.12,1213.4000
772.38,1199.0000
772.64,1204.4000
772.90,1206.8000
773.16,1221.6000
773.41,1219.0000
773.67,1204.8000
773.93,1195.2000
774.19,1193.6000
774.45,1212.8000
774.71,1210.4000
774.97,1192.2000
775.22,1201.0000
775.48,1195.4000
775.74,1194.6000
776.00,1219.2000
776.26,1195.6000
776.52,1201.8000
776.77,1196.6000
777.03,1184.0000
777.29,1195.8000
777.55,1190.8000
777.81,1201.2000
778.07,1195.0000
778.32,1186.6000
778.58,1189.6000
778.84,1191.6000
779.10,1201.2000
779.36,1190.6000
779.61,1191.0000
779.87,1182.8000
780.13,1190.2000
780.39,1197.8000
780.65,1181.6000
780.90,1196.4000
781.16,1191.6000
781.42,1188.2000
781.68,1192.4000
781.94,1186.4000
782.19,1182.6000
782.45,1204.4000
782.71,1189.0000
782.97,1189.8000
783.22,1190.4000
783.48,1179.4000
783.74,1183.4000
784.00,1186.8000
784.25,1185.8000
784.51,1172.8000
784.77,1187.6000
785.03,1179.2000
785.28,1176.4000
785.54,1179.8000
785.80,1177.8000
786.06,1173.0000
786.31,1175.4000
786.57,1164.4000
786.83,1176.8000
787.08,1176.8000
787.34,1172.6000
787.60,1166.2000
787.86,1173.8000
788.11,1171.8000
788.37,1178.0000
788.63,1169.8000
788.88,1175.0000
789.14,1161.4000
789.40,1158.2000
789.65,1153.8000
789.91,1156.6000
790.17,1154.8000
790.42,1159.8000
790.68,1157.6000
790.94,1163.4000
791.20,1176.4000
791.45,1168.4000
791.71,1153.6000
791.97,1151.0000
792.22,1164.8000
792.48,1151.6000
792.73,1148.4000
792.99,1152.4000
793.25,1145.6000
793.50,1152.0000
793.76,1152.2000
794.02,1148.4000
794.27,1136.2000
794.53,1152.2000
794.79,1145.2000
795.04,1151.8000
795.30,1149.4000
795.55,1147.0000
795.81,1135.2000
796.07,1135.4000
796.32,1140.0000
796.58,1148.4000
796.84,1134.0000
797.09,1137.4000
797.35,1154.0000
797.60,1151.2000
797.86,1147.4000
798.12,1155.4000
798.37,1148.8000
798.63,1137.8000
798.88,1137.0000
799.14,1139.4000
799.39,1132.4000
799.65,1133.0000
799.91,1122.0000
800.16,1129.4000
800.42,1127.0000
800.67,1139.0000
800.93,1135.8000
801.18,1114.0000
801.44,1122.4000
801.70,1129.8000
801.95,1129.6000
802.21,1132.2000
802.46,1129.6000
802.72,1122.8000
802.97,1129.8000
803.23,1132.2000
803.48,1131.8000
803.74,1126.4000
803.99,1123.8000
804.25,1115.4000
804.50,1135.8000
804.76,1122.8000
805.02,1122.8000
805.27,1131.8000
805.53,1136.4000
805.78,1121.2000
806.04,1138.6000
806.29,1134.4000
806.55,1127.4000
806.80,1134.4000
807.06,1136.8000
807.31,1122.2000
807.56,1121.0000
807.82,1114.0000
808.07,1121.6000
808.33,1113.4000
808.58,1115.8000
808.84,1111.6000
809.09,1118.4000
809.35,1107.2000
809.60,1094.2000
809.86,1117.4000
810.11,1107.2000
810.37,1110.4000
810.62,1100.8000
810.88,1110.2000
811.13,1109.0000
811.38,1105.0000
811.64,1091.4000
811.89,1084.2000
812.15,1088.0000
812.40,1094.0000
812.66,1098.6000
812.91,1082.2000
813.16,1069.6000
813.42,1070.2000
813.67,1058.8000
813.93,1069.4000
814.18,1066.8000
814.44,1065.0000
814.69,1054.4000
814.94,1056.4000
815.20,1051.6000
815.45,1035.6000
815.71,1044.2000
815.96,1034.4000
816.21,1049.6000
816.47,1045.6000
816.72,1037.2000
816.97,1046.4000
817.23,1049.8000
817.48,1047.8000
817.74,1046.4000
817.99,1038.8000
818.24,1047.8000
818.50,1042.4000
818.75,1068.6000
819.00,1039.4000
819.26,1055.2000
819.51,1069.2000
819.76,1049.2000
820.02,1053.2000
820.27,1060.8000
820.52,1053.8000
820.78,1060.4000
821.03,1062.6000
821.28,1063.2000
821.54,1055.8000
821.79,1061.4000
822.04,1050.0000
822.30,1025.4000
822.55,1030.2000
822.80,1014.0000
823.06,1016.4000
823.31,1027.0000
823.56,1040.0000
823.82,1052.6000
824.07,1062.2000
824.32,1060.4000
824.57,1062.6000
824.83,1063.8000
825.08,1075.2000
825.33,1069.6000
825.59,1052.6000
825.84,1049.4000
826.09,1060.8000
826.34,1051.0000
826.60,1064.0000
826.85,1057.6000
827.10,1049.6000
827.35,1039.0000
827.61,1034.6000
827.86,1049.8000
828.11,1057.4000
828.36,1035.0000
828.62,1049.2000
828.87,1051.4000
829.12,1044.2000
829.37,1054.8000
829.63,1043.0000
829.88,1045.0000
830.13,1057.8000
830.38,1052.2000
830.63,1043.4000
830.89,1050.0000
831.14,1043.8000
831.39,1050.4000
831.64,1045.4000
831.89,1043.0000
832.15,1041.2000
832.40,1045.8000
832.65,1056.8000
832.90,1042.0000
833.15,1051.2000
833.41,1041.6000
833.66,1057.0000
833.91,1053.8000
834.16,1052.8000
834.41,1052.2000
834.67,1051.0000
834.92,1037.8000
835.17,1057.4000
835.42,1050.2000
835.67,1053.6000
835.92,1054.2000
836.17,1053.0000
836.43,1053.6000
836.68,1058.6000
836.93,1049.2000
837.18,1052.8000
837.43,1048.6000
837.68,1055.0000
837.93,1053.4000
838.19,1045.6000
838.44,1044.2000
838.69,1055.2000
838.94,1049.0000
839.19,1050.4000
839.44,1059.2000
839.69,1061.0000
839.94,1053.4000
840.20,1050.2000
840.45,1056.8000
840.70,1049.8000
840.95,1047.0000
841.20,1051.6000
841.45,1052.2000
841.70,1049.0000
841.95,1051.0000
842.20,1050.6000
842.45,1058.0000
842.70,1046.6000
842.95,1051.0000
843.21,1045.6000
843.46,1042.8000
843.71,1042.4000
843.96,1055.0000
844.21,1042.4000
844.46,1042.8000
844.71,1038.8000
844.96,1067.8000
845.21,1048.2000
845.46,1044.4000
845.71,1057.6000
845.96,1044.8000
846.21,1055.0000
846.46,1046.6000
846.71,1036.6000
846.96,1026.6000
847.21,1051.4000
847.46,1047.6000
847.71,1044.6000
847.96,1066.0000
848.21,1039.0000
848.46,1048.6000
848.71,1039.8000
848.96,1044.0000
849.21,1029.2000
849.46,1015.6000
849.71,1044.2000
849.96,1033.0000
850.21,1033.2000
850.46,1043.2000
850.71,1042.8000
850.96,1027.8000
851.21,1035.6000
851.46,1044.4000
851.71,1039.2000
851.96,1042.0000
852.21,1033.6000
852.46,1029.0000
852.71,1033.0000
852.96,1034.0000
853.21,1031.4000
853.46,1018.0000
853.71,1020.0000
853.96,1012.6000
854.21,1006.0000
854.46,1028.8000
854.70,1020.8000
854.95,1031.2000
855.20,1025.2000
855.45,1039.2000
855.70,1039.0000
855.95,1034.8000
856.20,1039.2000
856.45,1043.6000
856.70,1037.8000
856.95,1031.8000
857.20,1040.4000
857.44,1044.2000
857.69,1038.2000
857.94,1035.2000
858.19,1040.4000
858.44,1028.2000
858.69,1035.4000
858.94,1032.0000
859.19,1037.4000
859.44,1031.8000
859.68,1032.2000
859.93,1039.8000
860.18,1036.0000
860.43,1033.8000
860.68,1047.8000
860.93,1035.0000
861.18,1031.6000
861.42,1034.2000
861.67,1028.2000
861.92,1049.2000
862.17,1040.0000
862.42,1037.6000
862.67,1019.0000
862.91,1038.6000
863.16,1029.0000
863.41,1027.4000
863.66,1036.0000
863.91,1047.0000
864.16,1026.0000
864.40,1025.4000
864.65,1032.2000
864.90,1015.4000
865.15,1027.6000
865.40,1019.0000
865.64,1020.0000
865.89,1013.0000
866.14,1009.4000
866.39,1001.2000
866.64,1008.0000
866.88,1015.0000
867.13,1031.8000
867.38,1036.2000
867.63,1022.0000
867.87,1014.8000
868.12,1016.0000
868.37,1021.2000
868.62,1018.0000
868.86,1034.6000
869.11,1014.8000
869.36,1024.2000
869.61,1021.6000
869.85,1031.2000
870.10,1028.6000
870.35,1024.0000
870.60,1025.2000
870.84,1021.4000
871.09,1014.0000
871.34,1011.2000
871.59,1027.8000
871.83,1017.4000
872.08,1018.4000
872.33,1012.2000
872.57,1022.8000
872.82,1019.2000
873.07,1031.2000
873.32,1024.0000
873.56,1021.2000
873.81,1010.2000
874.06,1018.2000
874.30,1008.0000
874.55,1024.2000
874.80,1005.6000
875.04,1026.8000
875.29,1024.2000
875.54,1019.0000
875.78,1015.0000
876.03,1026.2000
876.28,1018.6000
876.52,1015.4000
876.77,998.6000
877.02,1001.0000
877.26,1003.6000
877.51,1006.6000
877.76,1013.4000
878.00,1016.4000
878.25,1013.4000
878.50,1020.4000
878.74,1005.8000
878.99,1015.4000
879.23,1001.2000
879.48,1009.6000
879.73,1022.2000
879.97,1013.0000
880.22,1010.0000
880.47,1010.2000
880.71,992.2000
880.96,1012.4000
881.20,993.2000
881.45,1019.0000
881.70,1013.8000
881.94,1017.0000
882.19,1008.2000
882.43,1010.2000
882.68,1014.8000
882.92,1016.6000
883.17,1004.6000
883.42,1019.0000
883.66,1004.6000
883.91,1002.0000
884.15,1003.2000
884.40,1011.0000
884.64,999.8000
884.89,1010.0000
885.14,1001.8000
885.38,1002.0000
885.63,1002.6000
885.87,1003.0000
886.12,990.2000
886.36,994.2000
886.61,993.6000
886.85,993.0000
887.10,998.4000
887.34,1004.8000
887.59,1007.8000
887.83,1002.2000
888.08,1005.2000
888.32,986.2000
888.57,1005.0000
888.81,995.6000
889.06,1009.8000
889.30,996.0000
889.55,989.6000
889.79,996.6000
890.04,995.6000
890.28,998.2000
890.53,1001.4000
890.77,998.4000
891.02,996.4000
891.26,1005.4000
891.51,993.2000
891.75,994.6000
892.00,990.4000
892.24,986.6000
892.49,993.6000
892.73,980.6000
892.98,973.0000
893.22,978.4000
893.47,980.6000
893.71,983.0000
893.95,973.0000
894.20,977.0000
894.44,977.8000
894.69,992.8000
894.93,981.0000
895.18,973.0000
895.42,967.4000
895.66,970.4000
895.91,970.6000
896.15,964.2000
896.40,969.2000
896.64,974.2000
896.88,960.6000
897.13,973.2000
897.37,958.4000
897.62,956.4000
897.86,966.4000
898.10,952.4000
898.35,956.2000
898.59,945.4000
898.84,955.8000
899.08,950.2000
899.32,960.0000
899.57,966.2000
899.81,954.6000
900.05,946.0000
900.30,953.8000
900.54,943.4000
900.78,968.8000
901.03,954.8000
901.27,952.2000
901.52,953.4000
901.76,953.8000
902.00,959.0000
902.25,954.2000
902.49,959.0000
902.73,968.4000
902.98,958.0000
903.22,966.6000
903.46,955.4000
903.70,971.6000
903.95,970.8000
904.19,973.2000
904.43,968.6000
904.68,961.6000
904.92,964.2000
905.16,957.0000
905.41,981.0000
905.65,960.2000
905.89,943.0000
906.13,962.2000
906.38,950.8000
906.62,951.8000
906.86,936.4000
907.11,953.2000
907.35,943.8000
907.59,954.6000
907.83,954.2000
908.08,960.0000
908.32,938.8000
908.56,942.2000
908.80,941.6000
909.05,949.0000
909.29,949.6000
909.53,942.4000
909.77,936.0000
910.02,951.4000
910.26,958.8000
910.50,947.8000
910.74,955.2000
910.98,949.4000
911.23,960.2000
911.47,955.4000
911.71,944.0000
911.95,934.2000
912.20,947.6000
912.44,940.2000
912.68,939.8000
912.92,934.0000
913.16,934.8000
913.41,929.2000
913.65,943.2000
913.89,936.6000
914.13,939.8000
914.37,939.2000
914.61,942.0000
914.86,936.6000
915.10,938.8000
915.34,927.2000
915.58,929.8000
915.82,934.4000
916.06,932.8000
916.31,951.2000
916.55,944.6000
916.79,933.6000
917.03,948.4000
917.27,931.4000
917.51,939.6000
917.75,940.8000
918.00,941.0000
918.24,947.8000
918.48,941.6000
918.72,962.4000
918.96,943.8000
919.20,951.6000
919.44,958.0000
919.68,969.0000
919.92,948.8000
920.17,953.4000
920.41,936.6000
920.65,951.0000
920.89,944.6000
921.13,944.2000
921.37,943.0000
921.61,928.0000
921.85,936.0000
922.09,944.6000
922.33,941.4000
922.57,941.4000
922.81,936.6000
923.05,947.4000
923.30,928.2000
923.54,934.8000
923.78,921.0000
924.02,940.0000
924.26,927.4000
924.50,923.4000
924.74,939.0000
924.98,940.2000
925.22,949.8000
925.46,932.0000
925.70,937.4000
925.94,950.0000
926.18,937.0000
926.42,936.6000
926.66,938.2000
926.90,931.2000
927.14,921.2000
927.38,917.4000
927.62,923.2000
927.86,931.6000
928.10,921.4000
928.34,928.2000
928.58,922.6000
928.82,920.8000
929.06,917.4000
929.30,914.8000
929.54,905.2000
929.78,913.0000
930.02,908.4000
930.26,903.8000
930.50,907.8000
930.74,904.8000
930.98,899.8000
931.22,900.4000
931.46,893.2000
931.70,897.4000
931.94,898.4000
932.17,887.2000
932.41,903.6000
932.65,896.2000
932.89,890.2000
933.13,888.2000
933.37,891.8000
933.61,883.6000
933.85,888.0000
934.09,883.2000
934.33,891.0000
934.57,880.8000
934.81,893.8000
935.05,893.4000
935.28,898.2000
935.52,881.2000
935.76,878.6000
936.00,895.4000
936.24,897.8000
936.48,893.2000
936.72,891.4000
936.96,889.0000
937.19,891.0000
937.43,896.2000
937.67,890.8000
937.91,898.0000
938.15,886.8000
938.39,889.6000
938.63,891.4000
938.86,899.2000
939.10,896.4000
939.34,902.8000
939.58,898.4000
939.82,895.0000
940.06,899.6000
940.30,885.0000
940.53,892.8000
940.77,890.0000
941.01,891.4000
941.25,882.6000
