Wavelength (nm),Intensity
394.27,944.0000
394.56,925.2000
394.85,931.8000
395.14,924.2000
395.44,934.6000
395.73,928.0000
396.02,904.8000
396.31,922.4000
396.61,925.0000
396.90,919.0000
397.19,932.0000
397.48,923.8000
397.77,918.4000
398.06,931.0000
398.36,918.0000
398.65,918.8000
398.94,921.0000
399.23,916.6000
399.52,918.8000
399.82,926.0000
400.11,915.6000
400.40,931.6000
400.69,924.8000
400.98,924.6000
401.27,923.0000
401.57,899.2000
401.86,925.2000
402.15,930.4000
402.44,920.8000
402.73,918.8000
403.02,927.6000
403.32,908.8000
403.61,925.4000
403.90,923.4000
404.19,932.8000
404.48,934.8000
404.77,929.6000
405.06,939.8000
405.36,953.0000
405.65,931.2000
405.94,916.6000
406.23,938.4000
406.52,946.4000
406.81,939.0000
407.10,932.2000
407.40,934.4000
407.69,927.6000
407.98,930.6000
408.27,925.6000
408.56,915.6000
408.85,948.6000
409.14,925.8000
409.43,941.0000
409.72,926.2000
410.02,957.2000
410.31,926.8000
410.60,934.2000
410.89,948.0000
411.18,930.4000
411.47,936.8000
411.76,935.2000
412.05,924.2000
412.34,939.4000
412.63,930.8000
412.93,961.0000
413.22,938.2000
413.51,923.6000
413.80,933.0000
414.09,925.6000
414.38,928.6000
414.67,930.2000
414.96,923.8000
415.25,954.2000
415.54,944.0000
415.83,924.8000
416.12,933.0000
416.41,923.6000
416.70,938.4000
417.00,948.6000
417.29,926.6000
417.58,939.4000
417.87,932.0000
418.16,943.4000
418.45,939.2000
418.74,934.4000
419.03,932.2000
419.32,956.2000
419.61,944.2000
419.90,954.2000
420.19,945.8000
420.48,939.6000
420.77,929.2000
421.06,946.6000
421.35,962.4000
421.64,947.4000
421.93,928.8000
422.22,948.8000
422.51,958.6000
422.80,963.0000
423.09,949.4000
423.38,965.0000
423.67,962.0000
423.96,945.2000
424.25,945.2000
424.54,943.8000
424.83,941.6000
425.12,941.0000
425.41,950.6000
425.70,995.6000
425.99,956.8000
426.28,964.2000
426.57,970.2000
426.86,959.6000
427.15,970.0000
427.44,981.0000
427.73,973.0000
428.02,970.8000
428.31,976.4000
428.60,993.8000
428.89,979.8000
429.18,974.8000
429.47,980.8000
429.76,964.6000
430.05,975.2000
430.34,1002.4000
430.63,984.0000
430.92,1010.4000
431.21,989.4000
431.50,989.6000
431.79,1000.2000
432.08,994.2000
432.37,995.2000
432.66,1015.4000
432.94,1010.8000
433.23,1034.6000
433.52,1033.6000
433.81,1021.0000
434.10,1062.8000
434.39,1035.0000
434.68,1050.4000
434.97,1046.6000
435.26,1056.8000
435.55,1055.8000
435.84,1063.6000
436.13,1071.4000
436.42,1078.6000
436.71,1075.8000
436.99,1076.8000
437.28,1084.6000
437.57,1101.2000
437.86,1092.2000
438.15,1111.6000
438.44,1106.2000
438.73,1127.0000
439.02,1136.6000
439.31,1159.6000
439.60,1140.4000
439.88,1169.2000
440.17,1174.4000
440.46,1193.2000
440.75,1184.4000
441.04,1197.2000
441.33,1234.4000
441.62,1247.6000
441.91,1234.8000
442.20,1270.8000
442.48,1274.8000
442.77,1287.4000
443.06,1323.2000
443.35,1327.6000
443.64,1354.6000
443.93,1354.4000
444.22,1382.8000
444.50,1435.6000
444.79,1450.0000
445.08,1468.6000
445.37,1492.4000
445.66,1518.0000
445.95,1515.2000
446.24,1544.8000
446.52,1590.2000
446.81,1627.4000
447.10,1639.4000
447.39,1669.8000
447.68,1677.4000
447.97,1689.4000
448.25,1749.8000
448.54,1766.6000
448.83,1803.4000
449.12,1814.4000
449.41,1831.8000
449.69,1852.2000
449.98,1861.4000
450.27,1875.8000
450.56,1883.4000
450.85,1903.6000
451.14,1917.4000
451.42,1894.8000
451.71,1923.0000
452.00,1934.6000
452.29,1915.6000
452.58,1924.2000
452.86,1926.4000
453.15,1912.0000
453.44,1899.2000
453.73,1907.4000
454.01,1906.2000
454.30,1923.8000
454.59,1854.6000
454.88,1828.6000
455.17,1826.2000
455.45,1810.4000
455.74,1824.2000
456.03,1761.4000
456.32,1754.8000
456.60,1743.0000
456.89,1724.6000
457.18,1698.4000
457.47,1666.2000
457.76,1659.6000
458.04,1656.8000
458.33,1632.2000
458.62,1617.4000
458.91,1601.4000
459.19,1564.8000
459.48,1567.0000
459.77,1551.2000
460.06,1558.4000
460.34,1548.4000
460.63,1534.0000
460.92,1523.0000
461.20,1499.0000
461.49,1527.4000
461.78,1496.0000
462.07,1509.4000
462.35,1503.4000
462.64,1498.6000
462.93,1494.6000
463.22,1493.8000
463.50,1477.0000
463.79,1473.8000
464.08,1495.2000
464.36,1471.4000
464.65,1477.0000
464.94,1471.6000
465.22,1474.4000
465.51,1458.0000
465.80,1477.4000
466.09,1446.8000
466.37,1447.0000
466.66,1458.4000
466.95,1435.4000
467.23,1442.4000
467.52,1416.4000
467.81,1440.8000
468.09,1415.6000
468.38,1391.4000
468.67,1418.2000
468.95,1390.0000
469.24,1389.4000
469.53,1389.4000
469.81,1373.4000
470.10,1369.4000
470.39,1373.6000
470.67,1357.4000
470.96,1345.0000
471.25,1337.4000
471.53,1342.0000
471.82,1328.4000
472.11,1328.4000
472.39,1304.2000
472.68,1307.6000
472.97,1295.2000
473.25,1294.0000
473.54,1280.4000
473.82,1291.4000
474.11,1283.2000
474.40,1281.8000
474.68,1291.6000
474.97,1280.0000
475.26,1265.4000
475.54,1245.8000
475.83,1252.6000
476.11,1254.0000
476.40,1255.0000
476.69,1252.8000
476.97,1256.6000
477.26,1233.4000
477.55,1255.2000
477.83,1228.4000
478.12,1230.4000
478.40,1241.2000
478.69,1233.6000
478.98,1244.2000
479.26,1215.8000
479.55,1242.8000
479.83,1227.8000
480.12,1246.8000
480.40,1245.4000
480.69,1239.6000
480.98,1242.0000
481.26,1246.6000
481.55,1238.6000
481.83,1232.8000
482.12,1239.2000
482.41,1247.6000
482.69,1249.4000
482.98,1256.0000
483.26,1281.6000
483.55,1260.2000
483.83,1266.2000
484.12,1268.4000
484.40,1271.2000
484.69,1258.6000
484.98,1273.8000
485.26,1266.0000
485.55,1273.2000
485.83,1257.8000
486.12,1270.6000
486.40,1274.0000
486.69,1282.8000
486.97,1274.8000
487.26,1291.8000
487.54,1279.4000
487.83,1295.2000
488.11,1294.6000
488.40,1312.8000
488.68,1317.6000
488.97,1302.8000
489.26,1307.0000
489.54,1318.6000
489.83,1316.2000
490.11,1331.2000
490.40,1331.0000
490.68,1347.2000
490.97,1329.8000
491.25,1338.4000
491.54,1327.8000
491.82,1351.6000
492.11,1361.0000
492.39,1376.8000
492.68,1373.4000
492.96,1392.8000
493.24,1375.2000
493.53,1376.8000
493.81,1408.0000
494.10,1382.6000
494.38,1389.8000
494.67,1417.2000
494.95,1431.8000
495.24,1392.0000
495.52,1440.0000
495.81,1431.6000
496.09,1448.0000
496.38,1416.4000
496.66,1461.0000
496.95,1458.8000
497.23,1478.0000
497.51,1464.4000
497.80,1469.2000
498.08,1469.6000
498.37,1481.2000
498.65,1517.6000
498.94,1520.4000
499.22,1500.4000
499.51,1514.2000
499.79,1526.4000
500.07,1519.8000
500.36,1555.6000
500.64,1554.0000
500.93,1546.6000
501.21,1574.2000
501.50,1548.8000
501.78,1586.2000
502.06,1558.8000
502.35,1578.2000
502.63,1592.6000
502.92,1597.2000
503.20,1621.8000
503.48,1638.6000
503.77,1619.2000
504.05,1628.2000
504.34,1635.0000
504.62,1639.8000
504.90,1643.0000
505.19,1669.0000
505.47,1654.6000
505.76,1658.4000
506.04,1667.4000
506.32,1695.6000
506.61,1683.6000
506.89,1693.0000
507.17,1686.2000
507.46,1700.0000
507.74,1718.6000
508.03,1709.4000
508.31,1726.0000
508.59,1728.8000
508.88,1739.0000
509.16,1733.4000
509.44,1739.0000
509.73,1746.2000
510.01,1758.2000
510.29,1749.4000
510.58,1766.2000
510.86,1766.8000
511.14,1793.4000
511.43,1789.8000
511.71,1802.6000
511.99,1782.8000
512.28,1803.0000
512.56,1784.0000
512.84,1813.0000
513.13,1794.2000
513.41,1820.0000
513.69,1825.0000
513.98,1816.6000
514.26,1849.0000
514.54,1830.2000
514.83,1844.8000
515.11,1864.6000
515.39,1863.6000
515.68,1866.4000
515.96,1877.4000
516.24,1848.2000
516.53,1852.2000
516.81,1907.0000
517.09,1850.0000
517.37,1901.4000
517.66,1877.4000
517.94,1919.6000
518.22,1890.8000
518.51,1893.0000
518.79,1919.2000
519.07,1906.0000
519.35,1918.2000
519.64,1913.0000
519.92,1920.2000
520.20,1934.6000
520.48,1938.8000
520.77,1928.6000
521.05,1929.2000
521.33,1936.6000
521.62,1933.2000
521.90,1974.2000
522.18,1934.6000
522.46,1949.6000
522.75,1949.6000
523.03,1947.8000
523.31,1960.0000
523.59,1983.0000
523.88,1966.6000
524.16,1959.0000
524.44,1982.0000
524.72,2000.6000
525.00,1995.0000
525.29,1989.4000
525.57,1989.8000
525.85,1983.6000
526.13,1984.0000
526.42,1983.0000
526.70,2012.8000
526.98,1998.6000
527.26,2017.6000
527.54,1991.6000
527.83,2015.2000
528.11,2032.0000
528.39,2025.4000
528.67,2034.6000
528.95,2022.8000
529.24,2013.8000
529.52,2055.8000
529.80,2047.2000
530.08,2047.8000
530.36,2046.4000
530.65,2033.6000
530.93,2039.0000
531.21,2038.6000
531.49,2040.8000
531.77,2054.2000
532.05,2074.0000
532.34,2070.4000
532.62,2052.6000
532.90,2051.4000
533.18,2091.2000
533.46,2058.4000
533.74,2078.6000
534.03,2049.2000
534.31,2082.6000
534.59,2070.4000
534.87,2092.4000
535.15,2109.8000
535.43,2102.6000
535.71,2094.6000
536.00,2115.8000
536.28,2092.6000
536.56,2096.8000
536.84,2099.0000
537.12,2081.4000
537.40,2098.0000
537.68,2129.0000
537.97,2125.0000
538.25,2116.4000
538.53,2128.2000
538.81,2143.8000
539.09,2118.8000
539.37,2123.0000
539.65,2125.2000
539.93,2140.6000
540.21,2137.4000
540.50,2118.4000
540.78,2164.8000
541.06,2171.8000
541.34,2171.8000
541.62,2166.4000
541.90,2150.4000
542.18,2160.6000
542.46,2182.2000
542.74,2168.0000
543.02,2174.6000
543.30,2182.2000
543.58,2192.2000
543.87,2179.8000
544.15,2186.6000
544.43,2195.4000
544.71,2210.6000
544.99,2192.2000
545.27,2202.2000
545.55,2209.0000
545.83,2213.6000
546.11,2230.4000
546.39,2224.6000
546.67,2219.0000
546.95,2232.8000
547.23,2227.0000
547.51,2234.4000
547.79,2259.4000
548.07,2247.2000
548.35,2238.2000
548.63,2246.4000
548.91,2274.6000
549.20,2268.2000
549.48,2314.6000
549.76,2258.4000
550.04,2266.2000
550.32,2299.4000
550.60,2293.8000
550.88,2288.6000
551.16,2305.4000
551.44,2307.4000
551.72,2292.2000
552.00,2295.6000
552.28,2327.2000
552.56,2334.6000
552.84,2343.2000
553.12,2339.4000
553.40,2339.8000
553.68,2347.2000
553.96,2353.6000
554.24,2352.0000
554.52,2357.6000
554.80,2370.0000
555.08,2378.4000
555.36,2353.8000
555.64,2398.8000
555.92,2384.0000
556.19,2390.6000
556.47,2397.0000
556.75,2410.8000
557.03,2403.0000
557.31,2414.2000
557.59,2433.0000
557.87,2419.8000
558.15,2420.0000
558.43,2433.2000
558.71,2427.0000
558.99,2445.0000
559.27,2442.4000
559.55,2438.6000
559.83,2468.6000
560.11,2466.0000
560.39,2454.8000
560.67,2467.0000
560.95,2504.2000
561.23,2488.6000
561.50,2492.4000
561.78,2504.2000
562.06,2488.6000
562.34,2493.0000
562.62,2520.0000
562.90,2523.4000
563.18,2523.0000
563.46,2536.6000
563.74,2529.6000
564.02,2550.6000
564.30,2524.8000
564.57,2562.4000
564.85,2551.4000
565.13,2559.2000
565.41,2562.6000
565.69,2584.2000
565.97,2593.4000
566.25,2554.6000
566.53,2577.2000
566.81,2615.8000
567.08,2595.6000
567.36,2608.0000
567.64,2592.8000
567.92,2624.2000
568.20,2593.4000
568.48,2604.4000
568.76,2649.2000
569.04,2624.2000
569.31,2664.6000
569.59,2632.0000
569.87,2656.0000
570.15,2631.8000
570.43,2655.6000
570.71,2680.6000
570.99,2648.2000
571.26,2674.2000
571.54,2673.6000
571.82,2663.8000
572.10,2708.8000
572.38,2677.4000
572.66,2689.2000
572.93,2690.2000
573.21,2700.0000
573.49,2710.2000
573.77,2726.4000
574.05,2697.2000
574.32,2695.6000
574.60,2712.6000
574.88,2718.4000
575.16,2731.8000
575.44,2740.4000
575.71,2740.6000
575.99,2800.8000
576.27,2747.4000
576.55,2741.0000
576.83,2758.4000
577.10,2767.0000
577.38,2772.4000
577.66,2778.8000
577.94,2776.2000
578.22,2774.8000
578.49,2797.6000
578.77,2793.6000
579.05,2820.0000
579.33,2802.0000
579.60,2808.8000
579.88,2818.8000
580.16,2844.6000
580.44,2843.6000
580.72,2856.4000
580.99,2855.0000
581.27,2888.0000
581.55,2875.6000
581.83,2885.2000
582.10,2895.6000
582.38,2894.4000
582.66,2918.6000
582.94,2922.6000
583.21,2944.2000
583.49,2946.4000
583.77,2945.4000
584.04,2977.0000
584.32,2967.8000
584.60,3005.8000
584.88,2963.6000
585.15,3013.8000
585.43,3021.4000
585.71,3014.6000
585.98,3051.0000
586.26,3022.4000
586.54,3059.0000
586.82,3063.4000
587.09,3065.4000
587.37,3097.0000
587.65,3108.2000
587.92,3100.0000
588.20,3115.8000
588.48,3140.2000
588.75,3102.4000
589.03,3135.6000
589.31,3164.0000
589.59,3156.4000
589.86,3210.6000
590.14,3178.6000
590.42,3196.0000
590.69,3205.8000
590.97,3229.2000
591.25,3195.8000
591.52,3239.0000
591.80,3247.6000
592.08,3247.4000
592.35,3257.2000
592.63,3276.2000
592.91,3287.8000
593.18,3309.2000
593.46,3286.6000
593.73,3297.0000
594.01,3315.6000
594.29,3348.2000
594.56,3332.6000
594.84,3327.0000
595.12,3361.2000
595.39,3355.2000
595.67,3337.8000
595.95,3373.6000
596.22,3346.8000
596.50,3377.4000
596.77,3380.2000
597.05,3394.0000
597.33,3402.8000
597.60,3402.6000
597.88,3430.2000
598.15,3433.8000
598.43,3413.2000
598.71,3412.8000
598.98,3460.2000
599.26,3457.4000
599.53,3458.2000
599.81,3479.8000
600.09,3458.2000
600.36,3477.0000
600.64,3453.0000
600.91,3466.8000
601.19,3480.0000
601.47,3474.0000
601.74,3482.2000
602.02,3471.0000
602.29,3513.4000
602.57,3491.8000
602.84,3483.6000
603.12,3496.2000
603.40,3528.4000
603.67,3520.6000
603.95,3533.6000
604.22,3574.8000
604.50,3524.0000
604.77,3546.4000
605.05,3515.4000
605.32,3564.4000
605.60,3536.0000
605.87,3530.2000
606.15,3555.0000
606.42,3545.4000
606.70,3530.2000
606.98,3538.8000
607.25,3549.6000
607.53,3556.4000
607.80,3576.0000
608.08,3588.4000
608.35,3572.4000
608.63,3576.6000
608.90,3585.2000
609.18,3567.0000
609.45,3586.4000
609.73,3572.8000
610.00,3580.0000
610.28,3573.8000
610.55,3544.0000
610.83,3580.2000
611.10,3574.8000
611.38,3560.2000
611.65,3577.8000
611.93,3577.0000
612.20,3565.2000
612.48,3570.0000
612.75,3565.4000
613.03,3568.4000
613.30,3578.8000
613.57,3586.0000
613.85,3596.2000
614.12,3580.2000
614.40,3612.2000
614.67,3555.6000
614.95,3574.2000
615.22,3566.4000
615.50,3538.8000
615.77,3564.6000
616.05,3558.8000
616.32,3550.0000
616.59,3539.0000
616.87,3562.8000
617.14,3563.2000
617.42,3535.6000
617.69,3538.2000
617.97,3527.2000
618.24,3540.0000
618.51,3507.2000
618.79,3497.8000
619.06,3516.6000
619.34,3515.4000
619.61,3505.6000
619.88,3525.2000
620.16,3514.0000
620.43,3493.6000
620.71,3478.4000
620.98,3480.2000
621.26,3495.2000
621.53,3471.4000
621.80,3471.4000
622.08,3447.8000
622.35,3455.0000
622.62,3448.6000
622.90,3428.2000
623.17,3439.0000
623.45,3420.8000
623.72,3432.4000
623.99,3423.8000
624.27,3415.0000
624.54,3403.2000
624.81,3412.4000
625.09,3420.8000
625.36,3378.8000
625.64,3392.8000
625.91,3376.4000
626.18,3362.4000
626.46,3385.4000
626.73,3397.4000
627.00,3373.6000
627.28,3346.2000
627.55,3315.2000
627.82,3327.8000
628.10,3335.2000
628.37,3314.6000
628.64,3324.2000
628.92,3287.4000
629.19,3295.0000
629.46,3302.8000
629.74,3281.2000
630.01,3335.8000
630.28,3312.0000
630.56,3310.6000
630.83,3312.0000
631.10,3333.2000
631.37,3293.0000
631.65,3277.4000
631.92,3255.0000
632.19,3233.8000
632.47,3260.4000
632.74,3232.4000
633.01,3218.2000
633.28,3199.8000
633.56,3177.6000
633.83,3155.6000
634.10,3169.2000
634.38,3182.0000
634.65,3181.4000
634.92,3176.4000
635.19,3153.8000
635.47,3159.2000
635.74,3149.6000
636.01,3104.2000
636.28,3122.6000
636.56,3097.2000
636.83,3096.8000
637.10,3095.0000
637.37,3081.0000
637.65,3075.6000
637.92,3062.4000
638.19,3018.2000
638.46,3048.4000
638.74,3006.8000
639.01,3033.8000
639.28,3006.0000
639.55,3027.0000
639.83,2990.4000
640.10,2980.4000
640.37,2974.6000
640.64,2960.0000
640.91,2965.0000
641.19,2946.4000
641.46,2960.4000
641.73,2938.6000
642.00,2939.0000
642.28,2901.6000
642.55,2899.8000
642.82,2889.6000
643.09,2904.2000
643.36,2880.4000
643.63,2874.6000
643.91,2874.8000
644.18,2860.2000
644.45,2856.2000
644.72,2829.0000
644.99,2831.4000
645.27,2814.2000
645.54,2806.8000
645.81,2805.2000
646.08,2788.2000
646.35,2790.2000
646.62,2784.6000
646.90,2748.4000
647.17,2771.6000
647.44,2758.6000
647.71,2751.4000
647.98,2699.2000
648.25,2729.8000
648.52,2702.2000
648.80,2703.6000
649.07,2691.2000
649.34,2682.0000
649.61,2652.8000
649.88,2674.4000
650.15,2658.0000
650.42,2647.8000
650.69,2618.4000
650.97,2635.4000
651.24,2615.8000
651.51,2620.0000
651.78,2604.8000
652.05,2573.8000
652.32,2583.6000
652.59,2611.2000
652.86,2546.0000
653.13,2532.8000
653.41,2557.8000
653.68,2561.2000
653.95,2531.0000
654.22,2523.8000
654.49,2521.4000
654.76,2494.2000
655.03,2517.2000
655.30,2490.4000
655.57,2468.6000
655.84,2469.0000
656.11,2478.2000
656.38,2427.2000
656.66,2433.4000
656.93,2416.8000
657.20,2423.0000
657.47,2430.2000
657.74,2398.4000
658.01,2406.6000
658.28,2358.6000
658.55,2391.0000
658.82,2354.4000
659.09,2384.2000
659.36,2373.6000
659.63,2355.0000
659.90,2330.4000
660.17,2344.2000
660.44,2288.4000
660.71,2302.6000
660.98,2290.0000
661.25,2300.4000
661.52,2286.6000
661.79,2292.4000
662.06,2286.8000
662.33,2240.0000
662.60,2265.0000
662.87,2239.6000
663.14,2219.2000
663.41,2228.6000
663.68,2195.8000
663.95,2190.2000
664.22,2203.8000
664.49,2213.2000
664.76,2186.0000
665.03,2171.8000
665.30,2181.2000
665.57,2160.4000
665.84,2142.8000
666.11,2138.4000
666.38,2132.4000
666.65,2133.2000
666.92,2143.6000
667.19,2117.4000
667.46,2115.4000
667.73,2088.2000
668.00,2074.2000
668.27,2083.6000
668.54,2098.0000
668.81,2068.2000
669.08,2053.4000
669.35,2061.4000
669.62,2072.0000
669.89,2036.0000
670.16,2037.8000
670.42,2014.0000
670.69,2010.4000
670.96,2001.0000
671.23,1995.8000
671.50,1983.4000
671.77,1983.6000
672.04,1984.6000
672.31,1946.2000
672.58,1965.8000
672.85,1955.0000
673.12,1945.2000
673.39,1951.6000
673.65,1926.0000
673.92,1934.2000
674.19,1935.2000
674.46,1920.4000
674.73,1909.0000
675.00,1886.8000
675.27,1886.0000
675.54,1876.8000
675.81,1880.0000
676.07,1865.0000
676.34,1896.6000
676.61,1869.8000
676.88,1856.2000
677.15,1874.0000
677.42,1842.4000
677.69,1844.4000
677.96,1841.8000
678.22,1819.0000
678.49,1820.8000
678.76,1805.8000
679.03,1791.6000
679.30,1785.6000
679.57,1781.6000
679.83,1789.2000
680.10,1767.8000
680.37,1769.0000
680.64,1784.6000
680.91,1755.0000
681.18,1779.8000
681.44,1730.4000
681.71,1717.0000
681.98,1731.2000
682.25,1740.8000
682.52,1719.6000
682.79,1728.6000
683.05,1734.0000
683.32,1694.8000
683.59,1696.8000
683.86,1679.2000
684.13,1690.4000
684.39,1676.6000
684.66,1699.0000
684.93,1692.4000
685.20,1672.2000
685.47,1654.4000
685.73,1670.2000
686.00,1646.4000
686.27,1660.0000
686.54,1634.0000
686.80,1640.6000
687.07,1639.0000
687.34,1604.0000
687.61,1621.0000
687.88,1614.4000
688.14,1611.8000
688.41,1611.2000
688.68,1597.6000
688.95,1583.4000
689.21,1574.2000
689.48,1596.8000
689.75,1590.2000
690.02,1568.2000
690.28,1574.4000
690.55,1560.0000
690.82,1530.6000
691.08,1550.6000
691.35,1544.4000
691.62,1559.6000
691.89,1555.2000
692.15,1539.4000
692.42,1527.6000
692.69,1515.2000
692.95,1522.4000
693.22,1529.8000
693.49,1513.0000
693.76,1506.0000
694.02,1500.0000
694.29,1509.2000
694.56,1495.4000
694.82,1493.4000
695.09,1475.2000
695.36,1476.6000
695.62,1473.4000
695.89,1494.6000
696.16,1479.8000
696.43,1486.8000
696.69,1484.6000
696.96,1482.0000
697.23,1449.8000
697.49,1453.6000
697.76,1457.2000
698.03,1442.4000
698.29,1447.8000
698.56,1435.4000
698.82,1442.0000
699.09,1440.8000
699.36,1431.6000
699.62,1426.2000
699.89,1430.8000
700.16,1404.0000
700.42,1424.4000
700.69,1435.2000
700.96,1415.8000
701.22,1417.8000
701.49,1405.0000
701.75,1414.0000
702.02,1390.6000
702.29,1398.4000
702.55,1392.2000
702.82,1395.6000
703.09,1382.4000
703.35,1404.0000
703.62,1393.0000
703.88,1394.8000
704.15,1365.6000
704.42,1375.6000
704.68,1360.6000
704.95,1375.2000
705.21,1361.2000
705.48,1375.2000
705.75,1365.8000
706.01,1355.0000
706.28,1346.4000
706.54,1347.8000
706.81,1360.0000
707.07,1358.0000
707.34,1328.8000
707.61,1362.0000
707.87,1337.0000
708.14,1348.8000
708.40,1350.4000
708.67,1342.4000
708.93,1343.0000
709.20,1330.0000
709.46,1342.0000
709.73,1340.6000
709.99,1340.6000
710.26,1324.8000
710.53,1332.8000
710.79,1311.0000
711.06,1326.6000
711.32,1420.0000
711.59,1347.6000
711.85,1346.0000
712.12,1327.0000
712.38,1312.6000
712.65,1321.6000
712.91,1313.4000
713.18,1314.0000
713.44,1315.4000
713.71,1303.2000
713.97,1305.0000
714.24,1302.6000
714.50,1300.4000
714.77,1307.2000
715.03,1299.4000
715.30,1306.6000
715.56,1301.0000
715.83,1282.8000
716.09,1293.8000
716.36,1308.4000
716.62,1286.2000
716.89,1267.6000
717.15,1295.0000
717.42,1258.8000
717.68,1268.0000
717.94,1266.4000
718.21,1259.2000
718.47,1277.4000
718.74,1262.2000
719.00,1257.2000
719.27,1262.8000
719.53,1264.8000
719.80,1263.6000
720.06,1264.6000
720.32,1279.0000
720.59,1259.2000
720.85,1265.0000
721.12,1253.2000
721.38,1279.6000
721.65,1280.0000
721.91,1278.2000
722.17,1260.8000
722.44,1290.8000
722.70,1275.2000
722.97,1262.4000
723.23,1253.2000
723.49,1250.6000
723.76,1247.2000
724.02,1264.6000
724.29,1270.4000
724.55,1248.0000
724.81,1256.2000
725.08,1265.6000
725.34,1268.8000
725.61,1255.0000
725.87,1268.8000
726.13,1279.2000
726.40,1261.8000
726.66,1263.0000
726.92,1262.0000
727.19,1274.2000
727.45,1242.4000
727.71,1269.2000
727.98,1274.2000
728.24,1271.4000
728.51,1256.0000
728.77,1255.8000
729.03,1265.4000
729.30,1271.2000
729.56,1261.8000
729.82,1278.0000
730.09,1282.4000
730.35,1259.4000
730.61,1271.0000
730.88,1263.4000
731.14,1276.6000
731.40,1265.4000
731.67,1289.4000
731.93,1289.0000
732.19,1289.8000
732.45,1303.2000
732.72,1286.2000
732.98,1281.8000
733.24,1292.4000
733.51,1297.8000
733.77,1310.2000
734.03,1313.2000
734.30,1301.0000
734.56,1308.6000
734.82,1282.6000
735.08,1303.8000
735.35,1289.4000
735.61,1300.0000
735.87,1290.2000
736.14,1313.8000
736.40,1297.6000
736.66,1296.4000
736.92,1309.8000
737.19,1309.8000
737.45,1304.6000
737.71,1310.6000
737.97,1295.0000
738.24,1314.8000
738.50,1306.6000
738.76,1322.6000
739.02,1301.0000
739.29,1302.2000
739.55,1317.8000
739.81,1304.2000
740.07,1302.6000
740.33,1319.0000
740.60,1307.6000
740.86,1315.4000
741.12,1302.2000
741.38,1301.6000
741.65,1307.0000
741.91,1320.2000
742.17,1309.4000
742.43,1308.4000
742.69,1315.8000
742.96,1335.2000
743.22,1324.4000
743.48,1328.6000
743.74,1320.2000
744.00,1335.6000
744.26,1316.2000
744.53,1311.4000
744.79,1309.6000
745.05,1319.0000
745.31,1316.2000
745.57,1333.4000
745.84,1329.8000
746.10,1325.0000
746.36,1333.2000
746.62,1342.2000
746.88,1324.6000
747.14,1340.2000
747.40,1323.4000
747.67,1321.8000
747.93,1334.4000
748.19,1327.6000
748.45,1322.6000
748.71,1335.2000
748.97,1334.6000
749.23,1331.4000
749.50,1347.2000
749.76,1327.8000
750.02,1326.2000
750.28,1334.6000
750.54,1313.0000
750.80,1318.6000
751.06,1315.0000
751.32,1306.0000
751.59,1327.8000
751.85,1319.8000
752.11,1335.2000
752.37,1331.4000
752.63,1324.6000
752.89,1336.8000
753.15,1345.8000
753.41,1322.6000
753.67,1320.4000
753.93,1324.8000
754.19,1321.0000
754.46,1346.2000
754.72,1305.6000
754.98,1325.0000
755.24,1324.2000
755.50,1309.4000
755.76,1324.2000
756.02,1320.4000
756.28,1304.2000
756.54,1309.0000
756.80,1323.0000
757.06,1321.2000
757.32,1297.0000
757.58,1318.2000
757.84,1325.8000
758.10,1299.4000
758.36,1297.8000
758.62,1292.6000
758.88,1261.4000
759.14,1237.8000
759.40,1171.0000
759.66,1105.6000
759.92,1089.0000
760.18,1065.6000
760.44,1055.8000
760.70,1072.2000
760.96,1083.0000
761.22,1127.6000
761.48,1150.2000
761.74,1180.0000
762.00,1167.0000
762.26,1135.8000
762.52,1126.4000
762.78,1135.2000
763.04,1132.2000
763.30,1147.0000
763.56,1135.2000
763.82,1123.0000
764.08,1161.8000
764.34,1163.8000
764.60,1174.2000
764.86,1181.4000
765.12,1173.0000
765.38,1202.4000
765.64,1211.4000
765.90,1241.6000
766.16,1222.0000
766.42,1236.2000
766.68,1245.2000
766.94,1238.4000
767.20,1261.4000
767.46,1252.0000
767.72,1254.0000
767.98,1272.2000
768.23,1257.0000
768.49,1284.0000
768.75,1286.2000
769.01,1296.4000
769.27,1259.0000
769.53,1297.4000
769.79,1280.2000
770.05,1291.2000
770.31,1289.4000
770.57,1308.2000
770.83,1283.8000
771.08,1279.2000
771.34,1281.8000
771.60,1289.2000
771.86,1272.2000
772.12,1280.2000
772.38,1265.8000
772.64,1269.4000
772.90,1271.4000
773.16,1279.8000
773.41,1268.6000
773.67,1264.6000
773.93,1277.6000
774.19,1263.4000
774.45,1260.6000
774.71,1295.6000
774.97,1279.2000
775.22,1269.0000
775.48,1276.0000
775.74,1258.4000
776.00,1278.2000
776.26,1259.0000
776.52,1255.6000
776.77,1266.8000
777.03,1271.4000
777.29,1252.0000
777.55,1249.6000
777.81,1262.2000
778.07,1258.8000
778.32,1251.0000
778.58,1244.2000
778.84,1249.0000
779.10,1257.4000
779.36,1261.4000
779.61,1252.8000
779.87,1263.4000
780.13,1245.0000
780.39,1251.0000
780.65,1246.0000
780.90,1239.4000
781.16,1251.8000
781.42,1234.2000
781.68,1241.0000
781.94,1254.0000
782.19,1246.2000
782.45,1250.4000
782.71,1249.4000
782.97,1244.2000
783.22,1243.8000
783.48,1242.6000
783.74,1252.2000
784.00,1231.2000
784.25,1235.4000
784.51,1224.0000
784.77,1251.0000
785.03,1241.0000
785.28,1246.8000
785.54,1221.0000
785.80,1249.0000
786.06,1234.4000
786.31,1217.2000
786.57,1232.6000
786.83,1219.0000
787.08,1241.2000
787.34,1214.2000
787.60,1225.2000
787.86,1223.0000
788.11,1221.2000
788.37,1226.8000
788.63,1211.4000
788.88,1228.8000
789.14,1219.0000
789.40,1210.6000
789.65,1215.2000
789.91,1217.8000
790.17,1205.6000
790.42,1198.4000
790.68,1214.2000
790.94,1208.6000
791.20,1216.6000
791.45,1217.0000
791.71,1201.4000
791.97,1195.6000
792.22,1219.0000
792.48,1209.6000
792.73,1198.6000
792.99,1200.2000
793.25,1191.6000
793.50,1205.2000
793.76,1197.6000
794.02,1184.2000
794.27,1185.8000
794.53,1214.6000
794.79,1204.8000
795.04,1207.4000
795.30,1195.0000
795.55,1196.6000
795.81,1177.6000
796.07,1195.4000
796.32,1193.4000
796.58,1192.4000
796.84,1188.4000
797.09,1202.2000
797.35,1189.0000
797.60,1185.2000
797.86,1187.8000
798.12,1206.8000
798.37,1202.0000
798.63,1183.0000
798.88,1184.2000
799.14,1188.0000
799.39,1179.2000
799.65,1204.0000
799.91,1159.6000
800.16,1184.0000
800.42,1178.8000
800.67,1192.2000
800.93,1180.2000
801.18,1174.0000
801.44,1170.0000
801.70,1182.2000
801.95,1183.8000
802.21,1167.4000
802.46,1157.6000
802.72,1162.6000
802.97,1184.4000
803.23,1169.4000
803.48,1165.8000
803.74,1154.0000
803.99,1161.4000
804.25,1166.2000
804.50,1184.4000
804.76,1177.4000
805.02,1166.0000
805.27,1181.2000
805.53,1189.8000
805.78,1165.4000
806.04,1177.0000
806.29,1164.4000
806.55,1186.8000
806.80,1168.6000
807.06,1193.6000
807.31,1146.6000
807.56,1168.4000
807.82,1164.8000
808.07,1170.4000
808.33,1168.2000
808.58,1165.6000
808.84,1168.8000
809.09,1153.4000
809.35,1165.0000
809.60,1145.8000
809.86,1150.6000
810.11,1163.8000
810.37,1144.2000
810.62,1139.6000
810.88,1138.2000
811.13,1153.4000
811.38,1126.8000
811.64,1153.6000
811.89,1140.0000
812.15,1144.0000
812.40,1127.0000
812.66,1127.8000
812.91,1135.2000
813.16,1116.4000
813.42,1109.0000
813.67,1112.0000
813.93,1098.4000
814.18,1111.0000
814.44,1125.8000
814.69,1093.8000
814.94,1097.2000
815.20,1099.2000
815.45,1096.6000
815.71,1090.6000
815.96,1084.2000
816.21,1092.0000
816.47,1093.8000
816.72,1089.4000
816.97,1091.4000
817.23,1092.4000
817.48,1090.8000
817.74,1084.6000
817.99,1087.6000
818.24,1114.0000
818.50,1100.2000
818.75,1117.2000
819.00,1091.4000
819.26,1102.6000
819.51,1125.0000
819.76,1095.8000
820.02,1094.4000
820.27,1106.8000
820.52,1104.8000
820.78,1100.8000
821.03,1121.0000
821.28,1123.6000
821.54,1104.0000
821.79,1088.0000
822.04,1077.4000
822.30,1070.6000
822.55,1078.0000
822.80,1064.0000
823.06,1052.8000
823.31,1077.8000
823.56,1098.2000
823.82,1092.6000
824.07,1105.0000
824.32,1090.6000
824.57,1115.6000
824.83,1111.8000
825.08,1127.2000
825.33,1115.0000
825.59,1084.0000
825.84,1100.8000
826.09,1117.2000
826.34,1106.6000
826.60,1105.6000
826.85,1104.6000
827.10,1070.6000
827.35,1102.0000
827.61,1062.8000
827.86,1087.6000
828.11,1096.2000
828.36,1072.0000
828.62,1087.6000
828.87,1096.8000
829.12,1080.0000
829.37,1102.0000
829.63,1090.2000
829.88,1091.4000
830.13,1090.0000
830.38,1114.6000
830.63,1088.8000
830.89,1083.2000
831.14,1084.8000
831.39,1097.8000
831.64,1092.8000
831.89,1102.0000
832.15,1089.4000
832.40,1080.4000
832.65,1097.8000
832.90,1089.0000
833.15,1091.6000
833.41,1095.6000
833.66,1129.6000
833.91,1104.6000
834.16,1095.8000
834.41,1106.8000
834.67,1083.8000
834.92,1097.4000
835.17,1099.2000
835.42,1094.8000
835.67,1088.2000
835.92,1103.4000
836.17,1097.6000
836.43,1104.2000
836.68,1118.8000
836.93,1086.0000
837.18,1099.8000
837.43,1088.6000
837.68,1091.8000
837.93,1079.8000
838.19,1102.4000
838.44,1081.0000
838.69,1101.0000
838.94,1089.6000
839.19,1083.6000
839.44,1093.6000
839.69,1099.6000
839.94,1086.6000
840.20,1111.0000
840.45,1121.0000
840.70,1112.2000
840.95,1091.2000
841.20,1091.4000
841.45,1081.2000
841.70,1095.8000
841.95,1087.8000
842.20,1095.2000
842.45,1127.4000
842.70,1103.8000
842.95,1090.4000
843.21,1100.8000
843.46,1084.2000
843.71,1094.0000
843.96,1102.6000
844.21,1080.2000
844.46,1087.4000
844.71,1088.0000
844.96,1120.8000
845.21,1096.2000
845.46,1096.8000
845.71,1104.0000
845.96,1087.6000
846.21,1096.2000
846.46,1094.4000
846.71,1079.0000
846.96,1073.6000
847.21,1102.0000
847.46,1098.2000
847.71,1093.4000
847.96,1092.6000
848.21,1085.4000
848.46,1088.6000
848.71,1098.4000
848.96,1090.2000
849.21,1093.4000
849.46,1057.6000
849.71,1084.6000
849.96,1055.6000
850.21,1070.0000
850.46,1086.0000
850.71,1073.8000
850.96,1062.2000
851.21,1079.4000
851.46,1076.8000
851.71,1075.2000
851.96,1063.8000
852.21,1078.8000
852.46,1075.2000
852.71,1082.6000
852.96,1070.6000
853.21,1062.0000
853.46,1074.0000
853.71,1064.6000
853.96,1029.8000
854.21,1050.8000
854.46,1083.8000
854.70,1082.2000
854.95,1071.4000
855.20,1068.2000
855.45,1083.2000
855.70,1087.4000
855.95,1065.6000
856.20,1088.0000
856.45,1076.8000
856.70,1082.0000
856.95,1090.0000
857.20,1074.0000
857.44,1098.6000
857.69,1074.2000
857.94,1077.8000
858.19,1076.6000
858.44,1077.6000
858.69,1089.4000
858.94,1083.2000
859.19,1067.0000
859.44,1064.8000
859.68,1082.2000
859.93,1079.4000
860.18,1067.0000
860.43,1081.6000
860.68,1088.6000
860.93,1070.4000
861.18,1081.0000
861.42,1081.2000
861.67,1063.8000
861.92,1078.8000
862.17,1078.2000
862.42,1079.8000
862.67,1075.4000
862.91,1063.6000
863.16,1072.4000
863.41,1083.2000
863.66,1076.6000
863.91,1082.0000
864.16,1079.0000
864.40,1068.4000
864.65,1064.8000
864.90,1056.0000
865.15,1060.4000
865.40,1056.6000
865.64,1054.0000
865.89,1050.4000
866.14,1054.2000
866.39,1055.6000
866.64,1057.6000
866.88,1045.2000
867.13,1082.0000
867.38,1071.2000
867.63,1048.4000
867.87,1055.8000
868.12,1064.4000
868.37,1074.0000
868.62,1053.6000
868.86,1063.6000
869.11,1043.2000
869.36,1061.8000
869.61,1068.4000
869.85,1064.0000
870.10,1074.6000
870.35,1065.2000
870.60,1062.6000
870.84,1058.4000
871.09,1049.0000
871.34,1057.0000
871.59,1069.0000
871.83,1062.6000
872.08,1063.4000
872.33,1056.8000
872.57,1052.2000
872.82,1066.6000
873.07,1057.8000
873.32,1064.8000
873.56,1058.2000
873.81,1053.4000
874.06,1065.6000
874.30,1048.6000
874.55,1061.4000
874.80,1048.4000
875.04,1069.4000
875.29,1051.8000
875.54,1060.6000
875.78,1055.0000
876.03,1061.6000
876.28,1048.4000
876.52,1043.6000
876.77,1051.4000
877.02,1052.8000
877.26,1053.8000
877.51,1040.2000
877.76,1045.2000
878.00,1051.4000
878.25,1062.6000
878.50,1069.2000
878.74,1047.6000
878.99,1051.4000
879.23,1043.4000
879.48,1041.4000
879.73,1057.0000
879.97,1050.6000
880.22,1041.4000
880.47,1045.4000
880.71,1035.0000
880.96,1072.4000
881.20,1046.2000
881.45,1030.8000
881.70,1044.0000
881.94,1047.2000
882.19,1037.6000
882.43,1068.2000
882.68,1044.8000
882.92,1069.4000
883.17,1046.6000
883.42,1055.0000
883.66,1038.2000
883.91,1047.0000
884.15,1032.8000
884.40,1051.8000
884.64,1042.4000
884.89,1061.6000
885.14,1037.4000
885.38,1049.4000
885.63,1046.6000
885.87,1044.6000
886.12,1035.0000
886.36,1052.0000
886.61,1036.2000
886.85,1036.0000
887.10,1043.8000
887.34,1039.6000
887.59,1038.6000
887.83,1041.2000
888.08,1053.4000
888.32,1026.0000
888.57,1050.2000
888.81,1046.0000
889.06,1040.2000
889.30,1033.0000
889.55,1035.6000
889.79,1032.2000
890.04,1044.8000
890.28,1032.2000
890.53,1037.0000
890.77,1048.8000
891.02,1039.2000
891.26,1031.0000
891.51,1035.8000
891.75,1033.2000
892.00,1018.2000
892.24,1023.6000
892.49,1029.2000
892.73,1035.2000
892.98,1032.4000
893.22,1026.0000
893.47,1004.8000
893.71,1036.0000
893.95,1027.2000
894.20,1021.2000
894.44,1004.8000
894.69,1033.0000
894.93,1043.0000
895.18,1014.6000
895.42,1019.2000
895.66,1006.8000
895.91,1009.0000
896.15,995.8000
896.40,1021.2000
896.64,1011.4000
896.88,1006.0000
897.13,1018.6000
897.37,1001.8000
897.62,997.6000
897.86,1014.6000
898.10,996.8000
898.35,978.6000
898.59,993.8000
898.84,991.8000
899.08,990.6000
899.32,999.8000
899.57,1003.8000
899.81,991.8000
900.05,982.8000
900.30,993.2000
900.54,984.8000
900.78,1012.8000
901.03,1002.0000
901.27,985.8000
901.52,993.6000
901.76,990.2000
902.00,999.4000
902.25,994.0000
902.49,997.6000
902.73,1009.8000
902.98,1007.0000
903.22,1025.4000
903.46,997.6000
903.70,1015.2000
903.95,1007.8000
904.19,1011.6000
904.43,1022.2000
904.68,1007.4000
904.92,995.4000
905.16,1005.0000
905.41,1009.2000
905.65,994.8000
905.89,991.6000
906.13,1012.2000
906.38,986.6000
906.62,1006.8000
906.86,978.2000
907.11,999.2000
907.35,986.2000
907.59,999.4000
907.83,1010.0000
908.08,984.2000
908.32,982.4000
908.56,990.8000
908.80,983.2000
909.05,998.8000
909.29,1001.8000
909.53,985.8000
909.77,985.2000
910.02,981.8000
910.26,1000.8000
910.50,990.6000
910.74,999.6000
910.98,997.2000
911.23,998.8000
911.47,993.2000
911.71,990.4000
911.95,983.0000
912.20,995.0000
912.44,968.4000
912.68,979.2000
912.92,969.8000
913.16,993.8000
913.41,956.6000
913.65,993.2000
913.89,997.0000
914.13,982.8000
914.37,974.6000
914.61,1006.8000
914.86,969.2000
915.10,974.2000
915.34,979.0000
915.58,969.6000
915.82,978.4000
916.06,988.8000
916.31,983.8000
916.55,981.6000
916.79,994.2000
917.03,973.8000
917.27,961.6000
917.51,986.8000
917.75,987.8000
918.00,978.4000
918.24,996.6000
918.48,994.8000
918.72,1017.6000
918.96,989.2000
919.20,1009.0000
919.44,1014.0000
919.68,1027.2000
919.92,1001.6000
920.17,988.2000
920.41,984.2000
920.65,989.6000
920.89,971.0000
921.13,985.2000
921.37,995.2000
921.61,978.4000
921.85,987.0000
922.09,977.6000
922.33,985.8000
922.57,984.6000
922.81,967.6000
923.05,989.4000
923.30,978.2000
923.54,970.8000
923.78,964.0000
924.02,989.0000
924.26,974.8000
924.50,970.0000
924.74,981.0000
924.98,975.8000
925.22,988.4000
925.46,978.8000
925.70,977.2000
925.94,999.0000
926.18,981.0000
926.42,976.4000
926.66,983.4000
926.90,965.6000
927.14,958.8000
927.38,965.8000
927.62,961.2000
927.86,979.0000
928.10,968.2000
928.34,953.8000
928.58,945.8000
928.82,951.8000
929.06,968.8000
929.30,973.0000
929.54,949.8000
929.78,960.2000
930.02,929.0000
930.26,953.2000
930.50,938.6000
930.74,944.8000
930.98,942.0000
931.22,932.4000
931.46,938.8000
931.70,939.8000
931.94,940.2000
932.17,930.8000
932.41,940.2000
932.65,933.8000
932.89,927.4000
933.13,926.0000
933.37,933.8000
933.61,912.8000
933.85,915.8000
934.09,918.2000
934.33,931.6000
934.57,919.8000
934.81,927.8000
935.05,930.8000
935.28,927.0000
935.52,919.2000
935.76,918.6000
936.00,930.8000
936.24,938.6000
936.48,931.2000
936.72,929.0000
936.96,934.0000
937.19,934.0000
937.43,943.4000
937.67,936.6000
937.91,931.0000
938.15,925.2000
938.39,932.4000
938.63,928.6000
938.86,935.2000
939.10,942.0000
939.34,939.0000
939.58,928.2000
939.82,937.0000
940.06,938.2000
940.30,920.6000
940.53,924.6000
940.77,930.8000
941.01,934.8000
941.25,926.0000
