Wavelength (nm),Intensity
394.27,938.4000
394.56,923.0000
394.85,938.4000
395.14,932.2000
395.44,931.6000
395.73,937.8000
396.02,920.6000
396.31,932.2000
396.61,928.4000
396.90,915.2000
397.19,929.6000
397.48,934.2000
397.77,917.8000
398.06,918.8000
398.36,929.0000
398.65,920.2000
398.94,916.8000
399.23,918.2000
399.52,925.6000
399.82,931.2000
400.11,929.0000
400.40,941.2000
400.69,925.4000
400.98,922.6000
401.27,927.8000
401.57,905.2000
401.86,928.4000
402.15,923.6000
402.44,932.6000
402.73,918.8000
403.02,932.0000
403.32,912.4000
403.61,933.2000
403.90,910.0000
404.19,937.2000
404.48,935.0000
404.77,933.8000
405.06,929.0000
405.36,937.8000
405.65,931.0000
405.94,911.2000
406.23,930.2000
406.52,940.6000
406.81,943.0000
407.10,936.0000
407.40,930.6000
407.69,934.8000
407.98,929.6000
408.27,930.0000
408.56,924.0000
408.85,944.0000
409.14,925.8000
409.43,937.4000
409.72,921.6000
410.02,954.2000
410.31,932.6000
410.60,934.6000
410.89,941.2000
411.18,932.0000
411.47,926.8000
411.76,939.8000
412.05,924.2000
412.34,934.4000
412.63,926.2000
412.93,962.6000
413.22,951.6000
413.51,928.8000
413.80,946.6000
414.09,926.0000
414.38,931.0000
414.67,935.6000
414.96,928.6000
415.25,959.4000
415.54,943.6000
415.83,928.0000
416.12,926.2000
416.41,921.4000
416.70,944.2000
417.00,945.2000
417.29,946.8000
417.58,942.8000
417.87,942.4000
418.16,954.4000
418.45,935.2000
418.74,947.8000
419.03,937.4000
419.32,957.4000
419.61,953.4000
419.90,951.6000
420.19,947.4000
420.48,947.0000
420.77,931.6000
421.06,934.0000
421.35,949.6000
421.64,944.6000
421.93,941.4000
422.22,941.2000
422.51,965.4000
422.80,953.2000
423.09,951.2000
423.38,966.4000
423.67,951.6000
423.96,941.2000
424.25,955.0000
424.54,956.2000
424.83,938.6000
425.12,960.4000
425.41,947.2000
425.70,1004.4000
425.99,960.2000
426.28,964.4000
426.57,960.6000
426.86,961.8000
427.15,967.4000
427.44,982.4000
427.73,974.0000
428.02,976.0000
428.31,984.8000
428.60,978.6000
428.89,974.6000
429.18,977.6000
429.47,984.6000
429.76,976.0000
430.05,978.6000
430.34,990.6000
430.63,982.0000
430.92,996.8000
431.21,1002.4000
431.50,1001.2000
431.79,1006.8000
432.08,1000.0000
432.37,1003.6000
432.66,1009.0000
432.94,1010.0000
433.23,1030.2000
433.52,1030.8000
433.81,1027.6000
434.10,1059.2000
434.39,1050.4000
434.68,1040.6000
434.97,1035.6000
435.26,1053.2000
435.55,1059.8000
435.84,1066.2000
436.13,1064.4000
436.42,1081.6000
436.71,1073.0000
436.99,1069.4000
437.28,1077.6000
437.57,1098.0000
437.86,1100.2000
438.15,1113.8000
438.44,1103.4000
438.73,1133.0000
439.02,1140.8000
439.31,1156.2000
439.60,1134.8000
439.88,1164.0000
440.17,1178.6000
440.46,1194.4000
440.75,1189.0000
441.04,1195.6000
441.33,1226.6000
441.62,1235.8000
441.91,1243.0000
442.20,1276.8000
442.48,1280.2000
442.77,1300.8000
443.06,1315.0000
443.35,1327.2000
443.64,1357.0000
443.93,1363.6000
444.22,1385.8000
444.50,1430.8000
444.79,1446.8000
445.08,1473.8000
445.37,1495.6000
445.66,1493.0000
445.95,1521.2000
446.24,1555.8000
446.52,1576.2000
446.81,1629.0000
447.10,1617.2000
447.39,1660.8000
447.68,1678.0000
447.97,1691.0000
448.25,1758.8000
448.54,1770.0000
448.83,1793.0000
449.12,1820.0000
449.41,1815.2000
449.69,1838.0000
449.98,1856.0000
450.27,1890.8000
450.56,1885.2000
450.85,1908.4000
451.14,1904.6000
451.42,1905.8000
451.71,1937.0000
452.00,1930.8000
452.29,1915.2000
452.58,1925.2000
452.86,1920.6000
453.15,1899.2000
453.44,1906.8000
453.73,1908.4000
454.01,1896.8000
454.30,1929.6000
454.59,1848.6000
454.88,1835.4000
455.17,1830.6000
455.45,1803.8000
455.74,1819.0000
456.03,1776.0000
456.32,1749.0000
456.60,1732.6000
456.89,1718.2000
457.18,1691.8000
457.47,1694.4000
457.76,1672.4000
458.04,1646.8000
458.33,1625.2000
458.62,1622.4000
458.91,1587.6000
459.19,1579.2000
459.48,1574.6000
459.77,1548.6000
460.06,1549.2000
460.34,1541.8000
460.63,1535.4000
460.92,1527.2000
461.20,1522.4000
461.49,1526.4000
461.78,1478.6000
462.07,1495.4000
462.35,1499.6000
462.64,1507.0000
462.93,1496.6000
463.22,1493.6000
463.50,1480.2000
463.79,1474.4000
464.08,1490.4000
464.36,1457.6000
464.65,1462.2000
464.94,1468.2000
465.22,1471.4000
465.51,1457.0000
465.80,1458.4000
466.09,1439.2000
466.37,1457.8000
466.66,1462.6000
466.95,1441.0000
467.23,1438.6000
467.52,1432.4000
467.81,1432.0000
468.09,1430.8000
468.38,1416.0000
468.67,1423.8000
468.95,1398.6000
469.24,1368.2000
469.53,1388.2000
469.81,1377.8000
470.10,1371.2000
470.39,1365.8000
470.67,1354.8000
470.96,1354.4000
471.25,1338.8000
471.53,1349.2000
471.82,1341.4000
472.11,1325.6000
472.39,1307.6000
472.68,1315.4000
472.97,1296.4000
473.25,1302.4000
473.54,1298.2000
473.82,1284.0000
474.11,1288.0000
474.40,1279.2000
474.68,1290.6000
474.97,1275.6000
475.26,1248.0000
475.54,1239.6000
475.83,1243.4000
476.11,1243.4000
476.40,1251.6000
476.69,1248.2000
476.97,1244.8000
477.26,1246.2000
477.55,1263.6000
477.83,1224.2000
478.12,1245.6000
478.40,1233.8000
478.69,1234.6000
478.98,1225.0000
479.26,1224.2000
479.55,1239.4000
479.83,1226.2000
480.12,1252.2000
480.40,1244.6000
480.69,1224.8000
480.98,1244.4000
481.26,1258.6000
481.55,1245.0000
481.83,1248.8000
482.12,1253.2000
482.41,1257.6000
482.69,1242.2000
482.98,1265.4000
483.26,1273.6000
483.55,1253.2000
483.83,1258.0000
484.12,1261.6000
484.40,1263.2000
484.69,1248.4000
484.98,1278.2000
485.26,1259.2000
485.55,1269.8000
485.83,1256.6000
486.12,1279.4000
486.40,1271.4000
486.69,1282.2000
486.97,1286.0000
487.26,1292.0000
487.54,1292.6000
487.83,1294.8000
488.11,1298.6000
488.40,1318.0000
488.68,1322.8000
488.97,1305.6000
489.26,1310.0000
489.54,1328.2000
489.83,1322.4000
490.11,1317.6000
490.40,1345.0000
490.68,1325.8000
490.97,1326.2000
491.25,1334.0000
491.54,1331.8000
491.82,1349.2000
492.11,1353.4000
492.39,1360.0000
492.68,1341.8000
492.96,1372.2000
493.24,1378.8000
493.53,1376.8000
493.81,1391.4000
494.10,1381.0000
494.38,1388.4000
494.67,1400.4000
494.95,1422.6000
495.24,1409.2000
495.52,1427.8000
495.81,1442.0000
496.09,1434.6000
496.38,1426.6000
496.66,1467.0000
496.95,1450.0000
497.23,1451.2000
497.51,1456.8000
497.80,1460.6000
498.08,1470.8000
498.37,1477.2000
498.65,1502.4000
498.94,1510.8000
499.22,1511.4000
499.51,1512.2000
499.79,1526.4000
500.07,1519.4000
500.36,1560.8000
500.64,1539.8000
500.93,1532.8000
501.21,1599.0000
501.50,1551.8000
501.78,1586.0000
502.06,1567.6000
502.35,1583.6000
502.63,1591.8000
502.92,1592.8000
503.20,1622.0000
503.48,1630.4000
503.77,1620.8000
504.05,1628.4000
504.34,1607.8000
504.62,1632.2000
504.90,1640.4000
505.19,1667.0000
505.47,1648.0000
505.76,1662.0000
506.04,1670.6000
506.32,1699.8000
506.61,1662.8000
506.89,1697.2000
507.17,1692.0000
507.46,1707.2000
507.74,1707.8000
508.03,1712.2000
508.31,1718.0000
508.59,1703.6000
508.88,1732.8000
509.16,1726.6000
509.44,1759.8000
509.73,1757.6000
510.01,1745.8000
510.29,1766.2000
510.58,1743.2000
510.86,1766.4000
511.14,1791.0000
511.43,1785.0000
511.71,1800.4000
511.99,1794.2000
512.28,1813.8000
512.56,1797.6000
512.84,1815.8000
513.13,1801.6000
513.41,1817.2000
513.69,1836.2000
513.98,1798.8000
514.26,1844.0000
514.54,1836.2000
514.83,1853.2000
515.11,1833.2000
515.39,1855.2000
515.68,1884.8000
515.96,1865.4000
516.24,1858.2000
516.53,1877.8000
516.81,1882.6000
517.09,1876.0000
517.37,1879.0000
517.66,1899.2000
517.94,1895.8000
518.22,1890.6000
518.51,1883.0000
518.79,1913.0000
519.07,1885.4000
519.35,1924.8000
519.64,1931.8000
519.92,1925.0000
520.20,1949.4000
520.48,1933.0000
520.77,1936.6000
521.05,1928.6000
521.33,1931.0000
521.62,1927.6000
521.90,1946.6000
522.18,1934.8000
522.46,1946.8000
522.75,1942.8000
523.03,1959.8000
523.31,1948.4000
523.59,1961.0000
523.88,1981.2000
524.16,1982.4000
524.44,1983.4000
524.72,1977.6000
525.00,1994.2000
525.29,1972.2000
525.57,1974.4000
525.85,1997.4000
526.13,1964.6000
526.42,2000.0000
526.70,1990.6000
526.98,1986.2000
527.26,1999.4000
527.54,1991.4000
527.83,2018.8000
528.11,2015.0000
528.39,2032.4000
528.67,2031.8000
528.95,2040.8000
529.24,2014.0000
529.52,2016.2000
529.80,2024.8000
530.08,2044.4000
530.36,2043.4000
530.65,2040.2000
530.93,2034.6000
531.21,2050.0000
531.49,2047.8000
531.77,2047.4000
532.05,2053.4000
532.34,2060.6000
532.62,2032.6000
532.90,2058.6000
533.18,2065.0000
533.46,2069.2000
533.74,2054.2000
534.03,2061.6000
534.31,2076.6000
534.59,2071.2000
534.87,2084.8000
535.15,2092.0000
535.43,2092.2000
535.71,2079.0000
536.00,2101.4000
536.28,2107.8000
536.56,2105.0000
536.84,2091.6000
537.12,2070.4000
537.40,2085.6000
537.68,2113.0000
537.97,2113.0000
538.25,2106.8000
538.53,2109.0000
538.81,2131.0000
539.09,2109.4000
539.37,2132.2000
539.65,2125.6000
539.93,2132.6000
540.21,2144.4000
540.50,2126.8000
540.78,2156.8000
541.06,2137.8000
541.34,2160.0000
541.62,2162.8000
541.90,2163.6000
542.18,2165.2000
542.46,2170.6000
542.74,2160.6000
543.02,2182.4000
543.30,2176.8000
543.58,2190.0000
543.87,2171.6000
544.15,2178.8000
544.43,2191.0000
544.71,2213.4000
544.99,2199.0000
545.27,2200.0000
545.55,2193.4000
545.83,2207.6000
546.11,2210.6000
546.39,2216.8000
546.67,2241.4000
546.95,2214.4000
547.23,2204.4000
547.51,2224.6000
547.79,2242.6000
548.07,2245.2000
548.35,2239.8000
548.63,2232.0000
548.91,2270.4000
549.20,2262.2000
549.48,2296.8000
549.76,2276.4000
550.04,2267.4000
550.32,2294.6000
550.60,2286.8000
550.88,2260.4000
551.16,2300.4000
551.44,2304.0000
551.72,2296.6000
552.00,2314.4000
552.28,2304.4000
552.56,2348.0000
552.84,2338.0000
553.12,2352.0000
553.40,2327.0000
553.68,2332.2000
553.96,2353.6000
554.24,2341.4000
554.52,2361.8000
554.80,2377.2000
555.08,2362.2000
555.36,2344.6000
555.64,2377.0000
555.92,2367.8000
556.19,2381.8000
556.47,2371.6000
556.75,2410.2000
557.03,2387.6000
557.31,2412.4000
557.59,2417.0000
557.87,2423.2000
558.15,2419.4000
558.43,2429.0000
558.71,2411.6000
558.99,2431.8000
559.27,2442.6000
559.55,2425.2000
559.83,2457.6000
560.11,2444.6000
560.39,2455.0000
560.67,2456.2000
560.95,2472.2000
561.23,2471.0000
561.50,2476.2000
561.78,2470.8000
562.06,2477.4000
562.34,2489.8000
562.62,2495.2000
562.90,2523.8000
563.18,2528.0000
563.46,2517.4000
563.74,2529.8000
564.02,2532.2000
564.30,2528.8000
564.57,2557.4000
564.85,2525.8000
565.13,2563.0000
565.41,2557.4000
565.69,2561.4000
565.97,2563.6000
566.25,2570.6000
566.53,2570.0000
566.81,2587.2000
567.08,2586.2000
567.36,2587.4000
567.64,2603.4000
567.92,2615.6000
568.20,2595.0000
568.48,2617.0000
568.76,2608.2000
569.04,2608.6000
569.31,2629.2000
569.59,2638.8000
569.87,2627.0000
570.15,2630.0000
570.43,2630.0000
570.71,2634.6000
570.99,2639.0000
571.26,2646.0000
571.54,2652.2000
571.82,2658.6000
572.10,2667.6000
572.38,2673.8000
572.66,2673.2000
572.93,2682.6000
573.21,2677.0000
573.49,2699.2000
573.77,2689.6000
574.05,2680.8000
574.32,2691.8000
574.60,2709.8000
574.88,2718.0000
575.16,2731.0000
575.44,2721.6000
575.71,2721.2000
575.99,2764.2000
576.27,2735.0000
576.55,2721.8000
576.83,2761.8000
577.10,2775.6000
577.38,2754.2000
577.66,2754.2000
577.94,2757.8000
578.22,2754.6000
578.49,2788.6000
578.77,2798.4000
579.05,2808.8000
579.33,2772.2000
579.60,2810.6000
579.88,2818.4000
580.16,2834.4000
580.44,2838.4000
580.72,2820.0000
580.99,2839.4000
581.27,2876.6000
581.55,2878.0000
581.83,2895.8000
582.10,2885.0000
582.38,2896.8000
582.66,2900.0000
582.94,2918.6000
583.21,2943.6000
583.49,2916.6000
583.77,2953.8000
584.04,2940.8000
584.32,2956.6000
584.60,2981.4000
584.88,2982.0000
585.15,2977.2000
585.43,3007.4000
585.71,3012.0000
585.98,3003.0000
586.26,3004.8000
586.54,3047.2000
586.82,3026.2000
587.09,3039.6000
587.37,3081.6000
587.65,3054.2000
587.92,3091.4000
588.20,3073.4000
588.48,3133.8000
588.75,3100.8000
589.03,3145.8000
589.31,3117.0000
589.59,3137.6000
589.86,3180.6000
590.14,3137.8000
590.42,3184.6000
590.69,3189.0000
590.97,3186.6000
591.25,3188.0000
591.52,3224.6000
591.80,3249.8000
592.08,3228.8000
592.35,3240.0000
592.63,3269.4000
592.91,3263.0000
593.18,3270.2000
593.46,3255.8000
593.73,3281.8000
594.01,3285.2000
594.29,3339.2000
594.56,3319.8000
594.84,3310.0000
595.12,3302.2000
595.39,3323.4000
595.67,3314.6000
595.95,3335.8000
596.22,3333.0000
596.50,3341.6000
596.77,3349.8000
597.05,3371.0000
597.33,3396.0000
597.60,3353.4000
597.88,3387.8000
598.15,3400.6000
598.43,3401.2000
598.71,3414.2000
598.98,3442.0000
599.26,3450.0000
599.53,3441.8000
599.81,3446.2000
600.09,3443.2000
600.36,3455.2000
600.64,3443.4000
600.91,3447.0000
601.19,3455.6000
601.47,3476.2000
601.74,3441.6000
602.02,3473.4000
602.29,3465.8000
602.57,3490.8000
602.84,3468.6000
603.12,3479.0000
603.40,3505.0000
603.67,3496.2000
603.95,3513.8000
604.22,3543.2000
604.50,3532.4000
604.77,3525.8000
605.05,3517.6000
605.32,3514.6000
605.60,3518.6000
605.87,3501.6000
606.15,3523.8000
606.42,3519.2000
606.70,3521.4000
606.98,3506.0000
607.25,3525.0000
607.53,3528.2000
607.80,3545.2000
608.08,3554.0000
608.35,3553.0000
608.63,3541.0000
608.90,3578.2000
609.18,3553.8000
609.45,3559.2000
609.73,3560.6000
610.00,3569.0000
610.28,3588.0000
610.55,3538.8000
610.83,3543.0000
611.10,3551.8000
611.38,3558.4000
611.65,3564.6000
611.93,3533.0000
612.20,3551.8000
612.48,3544.8000
612.75,3585.2000
613.03,3567.6000
613.30,3564.4000
613.57,3551.0000
613.85,3547.4000
614.12,3573.6000
614.40,3557.4000
614.67,3536.8000
614.95,3549.6000
615.22,3537.0000
615.50,3549.6000
615.77,3551.4000
616.05,3523.0000
616.32,3522.2000
616.59,3541.2000
616.87,3517.8000
617.14,3498.4000
617.42,3531.8000
617.69,3514.2000
617.97,3505.0000
618.24,3522.8000
618.51,3472.4000
618.79,3512.0000
619.06,3486.8000
619.34,3503.0000
619.61,3496.0000
619.88,3486.4000
620.16,3484.6000
620.43,3494.2000
620.71,3478.8000
620.98,3448.2000
621.26,3487.0000
621.53,3462.6000
621.80,3486.0000
622.08,3458.6000
622.35,3450.8000
622.62,3434.4000
622.90,3425.8000
623.17,3398.4000
623.45,3401.2000
623.72,3389.0000
623.99,3407.6000
624.27,3384.0000
624.54,3410.0000
624.81,3385.2000
625.09,3366.6000
625.36,3358.8000
625.64,3381.8000
625.91,3360.2000
626.18,3390.2000
626.46,3367.2000
626.73,3365.0000
627.00,3351.4000
627.28,3333.0000
627.55,3338.8000
627.82,3319.2000
628.10,3321.4000
628.37,3311.2000
628.64,3321.8000
628.92,3299.0000
629.19,3286.6000
629.46,3294.6000
629.74,3271.8000
630.01,3287.4000
630.28,3303.0000
630.56,3296.0000
630.83,3299.8000
631.10,3306.0000
631.37,3285.8000
631.65,3225.6000
631.92,3262.6000
632.19,3259.2000
632.47,3216.4000
632.74,3207.4000
633.01,3214.6000
633.28,3187.6000
633.56,3161.2000
633.83,3145.2000
634.10,3121.4000
634.38,3153.8000
634.65,3177.6000
634.92,3145.8000
635.19,3167.6000
635.47,3145.4000
635.74,3124.6000
636.01,3089.8000
636.28,3090.2000
636.56,3108.0000
636.83,3095.4000
637.10,3081.2000
637.37,3057.2000
637.65,3056.4000
637.92,3006.0000
638.19,3022.8000
638.46,3025.4000
638.74,3006.6000
639.01,3015.2000
639.28,2984.2000
639.55,2993.2000
639.83,2964.0000
640.10,2959.6000
640.37,2952.4000
640.64,2938.2000
640.91,2948.2000
641.19,2942.8000
641.46,2910.8000
641.73,2929.0000
642.00,2901.6000
642.28,2898.2000
642.55,2904.4000
642.82,2873.8000
643.09,2876.4000
643.36,2881.4000
643.63,2875.2000
643.91,2833.8000
644.18,2831.4000
644.45,2840.4000
644.72,2840.4000
644.99,2806.6000
645.27,2780.6000
645.54,2801.2000
645.81,2808.2000
646.08,2761.6000
646.35,2740.6000
646.62,2741.2000
646.90,2766.8000
647.17,2772.6000
647.44,2742.4000
647.71,2757.8000
647.98,2723.0000
648.25,2707.6000
648.52,2686.0000
648.80,2694.8000
649.07,2664.8000
649.34,2670.0000
649.61,2679.2000
649.88,2676.0000
650.15,2637.8000
650.42,2634.2000
650.69,2636.4000
650.97,2615.8000
651.24,2598.4000
651.51,2603.4000
651.78,2591.0000
652.05,2584.0000
652.32,2598.0000
652.59,2579.2000
652.86,2547.0000
653.13,2544.6000
653.41,2541.8000
653.68,2540.0000
653.95,2545.8000
654.22,2528.2000
654.49,2514.0000
654.76,2466.4000
655.03,2492.6000
655.30,2457.8000
655.57,2470.2000
655.84,2447.8000
656.11,2451.2000
656.38,2434.0000
656.66,2425.8000
656.93,2398.2000
657.20,2403.2000
657.47,2432.8000
657.74,2390.6000
658.01,2387.0000
658.28,2355.6000
658.55,2376.0000
658.82,2358.8000
659.09,2370.8000
659.36,2342.8000
659.63,2308.0000
659.90,2335.8000
660.17,2325.4000
660.44,2295.4000
660.71,2298.0000
660.98,2293.8000
661.25,2268.8000
661.52,2267.6000
661.79,2285.8000
662.06,2265.2000
662.33,2245.2000
662.60,2227.8000
662.87,2255.2000
663.14,2221.8000
663.41,2220.4000
663.68,2179.4000
663.95,2173.6000
664.22,2188.2000
664.49,2200.0000
664.76,2166.0000
665.03,2157.4000
665.30,2170.6000
665.57,2145.8000
665.84,2142.4000
666.11,2128.4000
666.38,2136.8000
666.65,2119.6000
666.92,2147.4000
667.19,2105.6000
667.46,2106.6000
667.73,2083.8000
668.00,2077.0000
668.27,2079.0000
668.54,2048.6000
668.81,2060.6000
669.08,2047.2000
669.35,2044.0000
669.62,2061.2000
669.89,2026.0000
670.16,2029.2000
670.42,2013.6000
670.69,2005.0000
670.96,2010.6000
671.23,1984.8000
671.50,1977.2000
671.77,1969.2000
672.04,1971.2000
672.31,1960.8000
672.58,1935.0000
672.85,1950.0000
673.12,1946.2000
673.39,1939.2000
673.65,1927.0000
673.92,1926.8000
674.19,1905.4000
674.46,1919.0000
674.73,1903.4000
675.00,1881.2000
675.27,1889.6000
675.54,1870.0000
675.81,1885.0000
676.07,1855.0000
676.34,1878.2000
676.61,1876.8000
676.88,1835.2000
677.15,1823.8000
677.42,1827.2000
677.69,1832.0000
677.96,1831.8000
678.22,1817.4000
678.49,1808.4000
678.76,1801.8000
679.03,1789.2000
679.30,1803.2000
679.57,1781.2000
679.83,1784.8000
680.10,1775.6000
680.37,1763.0000
680.64,1774.0000
680.91,1763.6000
681.18,1754.4000
681.44,1744.8000
681.71,1724.0000
681.98,1728.8000
682.25,1728.8000
682.52,1718.0000
682.79,1719.6000
683.05,1738.6000
683.32,1703.4000
683.59,1685.0000
683.86,1691.8000
684.13,1686.8000
684.39,1666.6000
684.66,1689.8000
684.93,1670.4000
685.20,1675.8000
685.47,1663.2000
685.73,1648.6000
686.00,1644.6000
686.27,1644.0000
686.54,1635.8000
686.80,1645.8000
687.07,1630.4000
687.34,1600.2000
687.61,1620.6000
687.88,1588.2000
688.14,1605.4000
688.41,1620.2000
688.68,1592.6000
688.95,1580.8000
689.21,1596.0000
689.48,1598.4000
689.75,1579.8000
690.02,1556.4000
690.28,1555.0000
690.55,1560.6000
690.82,1542.2000
691.08,1562.6000
691.35,1544.4000
691.62,1545.6000
691.89,1546.2000
692.15,1535.0000
692.42,1529.4000
692.69,1509.8000
692.95,1519.0000
693.22,1538.2000
693.49,1507.8000
693.76,1514.4000
694.02,1503.4000
694.29,1503.0000
694.56,1497.0000
694.82,1495.6000
695.09,1469.2000
695.36,1479.2000
695.62,1468.8000
695.89,1497.4000
696.16,1455.6000
696.43,1473.0000
696.69,1478.8000
696.96,1475.8000
697.23,1441.6000
697.49,1462.4000
697.76,1459.4000
698.03,1442.4000
698.29,1434.0000
698.56,1441.8000
698.82,1429.4000
699.09,1444.6000
699.36,1439.8000
699.62,1430.8000
699.89,1430.2000
700.16,1404.6000
700.42,1412.0000
700.69,1425.6000
700.96,1401.2000
701.22,1416.4000
701.49,1407.4000
701.75,1423.6000
702.02,1382.6000
702.29,1394.0000
702.55,1378.8000
702.82,1401.2000
703.09,1395.6000
703.35,1399.8000
703.62,1391.0000
703.88,1390.6000
704.15,1375.0000
704.42,1376.2000
704.68,1380.8000
704.95,1390.4000
705.21,1365.4000
705.48,1373.2000
705.75,1362.2000
706.01,1357.0000
706.28,1363.4000
706.54,1338.8000
706.81,1362.4000
707.07,1349.0000
707.34,1333.6000
707.61,1346.6000
707.87,1344.4000
708.14,1346.0000
708.40,1347.4000
708.67,1348.8000
708.93,1347.8000
709.20,1328.4000
709.46,1330.8000
709.73,1344.0000
709.99,1329.0000
710.26,1327.4000
710.53,1310.4000
710.79,1301.2000
711.06,1320.6000
711.32,1410.2000
711.59,1337.6000
711.85,1332.6000
712.12,1312.8000
712.38,1317.2000
712.65,1324.0000
712.91,1312.2000
713.18,1305.0000
713.44,1310.8000
713.71,1294.0000
713.97,1315.4000
714.24,1307.8000
714.50,1298.2000
714.77,1310.4000
715.03,1304.0000
715.30,1297.4000
715.56,1312.4000
715.83,1294.8000
716.09,1312.4000
716.36,1307.4000
716.62,1280.4000
716.89,1268.2000
717.15,1283.6000
717.42,1259.8000
717.68,1238.6000
717.94,1266.0000
718.21,1254.6000
718.47,1270.0000
718.74,1246.8000
719.00,1265.2000
719.27,1267.8000
719.53,1248.8000
719.80,1255.4000
720.06,1240.4000
720.32,1268.4000
720.59,1251.6000
720.85,1270.8000
721.12,1263.8000
721.38,1281.8000
721.65,1257.4000
721.91,1262.4000
722.17,1271.2000
722.44,1288.6000
722.70,1270.0000
722.97,1262.4000
723.23,1257.2000
723.49,1247.8000
723.76,1248.2000
724.02,1268.2000
724.29,1259.6000
724.55,1248.6000
724.81,1257.6000
725.08,1258.8000
725.34,1257.0000
725.61,1242.4000
725.87,1259.6000
726.13,1262.2000
726.40,1272.4000
726.66,1252.6000
726.92,1255.2000
727.19,1245.6000
727.45,1242.4000
727.71,1254.0000
727.98,1253.2000
728.24,1278.6000
728.51,1251.0000
728.77,1261.8000
729.03,1246.0000
729.30,1260.4000
729.56,1253.6000
729.82,1264.0000
730.09,1261.2000
730.35,1243.0000
730.61,1248.0000
730.88,1273.0000
731.14,1261.4000
731.40,1267.8000
731.67,1262.2000
731.93,1260.6000
732.19,1286.6000
732.45,1290.0000
732.72,1265.2000
732.98,1279.0000
733.24,1288.4000
733.51,1267.0000
733.77,1287.8000
734.03,1294.4000
734.30,1310.4000
734.56,1308.4000
734.82,1271.2000
735.08,1294.8000
735.35,1297.2000
735.61,1293.8000
735.87,1291.0000
736.14,1282.4000
736.40,1290.2000
736.66,1290.4000
736.92,1298.6000
737.19,1291.6000
737.45,1307.0000
737.71,1288.6000
737.97,1303.0000
738.24,1294.4000
738.50,1295.2000
738.76,1295.0000
739.02,1289.0000
739.29,1301.2000
739.55,1309.4000
739.81,1287.4000
740.07,1299.2000
740.33,1299.6000
740.60,1315.4000
740.86,1313.0000
741.12,1307.8000
741.38,1302.8000
741.65,1300.8000
741.91,1307.0000
742.17,1310.6000
742.43,1300.4000
742.69,1300.0000
742.96,1327.6000
743.22,1312.0000
743.48,1308.2000
743.74,1320.8000
744.00,1316.8000
744.26,1313.6000
744.53,1309.4000
744.79,1302.0000
745.05,1308.6000
745.31,1308.6000
745.57,1343.8000
745.84,1331.8000
746.10,1315.6000
746.36,1299.8000
746.62,1309.2000
746.88,1308.0000
747.14,1322.4000
747.40,1314.4000
747.67,1313.0000
747.93,1322.4000
748.19,1314.6000
748.45,1320.8000
748.71,1302.8000
748.97,1309.0000
749.23,1312.0000
749.50,1318.2000
749.76,1303.4000
750.02,1300.8000
750.28,1316.8000
750.54,1305.8000
750.80,1301.2000
751.06,1288.6000
751.32,1310.0000
751.59,1315.0000
751.85,1314.4000
752.11,1319.0000
752.37,1322.4000
752.63,1298.2000
752.89,1314.8000
753.15,1332.2000
753.41,1312.8000
753.67,1315.8000
753.93,1323.2000
754.19,1310.4000
754.46,1323.4000
754.72,1308.6000
754.98,1304.6000
755.24,1316.0000
755.50,1289.0000
755.76,1304.6000
756.02,1325.2000
756.28,1299.0000
756.54,1302.2000
756.80,1302.8000
757.06,1304.0000
757.32,1286.0000
757.58,1302.8000
757.84,1310.8000
758.10,1280.0000
758.36,1289.6000
758.62,1272.0000
758.88,1257.6000
759.14,1221.6000
759.40,1159.2000
759.66,1095.6000
759.92,1079.0000
760.18,1049.8000
760.44,1044.0000
760.70,1061.2000
760.96,1081.6000
761.22,1120.2000
761.48,1140.2000
761.74,1163.4000
762.00,1148.6000
762.26,1147.0000
762.52,1123.8000
762.78,1112.8000
763.04,1121.6000
763.30,1137.0000
763.56,1117.8000
763.82,1121.0000
764.08,1155.4000
764.34,1157.0000
764.60,1167.8000
764.86,1174.2000
765.12,1177.0000
765.38,1196.6000
765.64,1212.0000
765.90,1226.0000
766.16,1195.8000
766.42,1218.4000
766.68,1224.4000
766.94,1230.4000
767.20,1237.2000
767.46,1242.0000
767.72,1234.2000
767.98,1254.2000
768.23,1254.6000
768.49,1265.6000
768.75,1262.4000
769.01,1269.8000
769.27,1259.2000
769.53,1254.8000
769.79,1281.8000
770.05,1268.2000
770.31,1270.2000
770.57,1283.4000
770.83,1250.6000
771.08,1275.4000
771.34,1253.6000
771.60,1276.8000
771.86,1262.6000
772.12,1267.4000
772.38,1276.6000
772.64,1260.0000
772.90,1253.4000
773.16,1282.6000
773.41,1257.2000
773.67,1256.8000
773.93,1258.4000
774.19,1243.2000
774.45,1269.2000
774.71,1267.0000
774.97,1247.0000
775.22,1249.4000
775.48,1253.0000
775.74,1241.2000
776.00,1258.8000
776.26,1249.0000
776.52,1233.8000
776.77,1249.8000
777.03,1254.0000
777.29,1241.2000
777.55,1241.4000
777.81,1256.8000
778.07,1234.0000
778.32,1230.0000
778.58,1233.8000
778.84,1240.6000
779.10,1248.6000
779.36,1234.8000
779.61,1238.4000
779.87,1249.0000
780.13,1227.4000
780.39,1233.6000
780.65,1220.0000
780.90,1238.8000
781.16,1234.2000
781.42,1237.2000
781.68,1239.2000
781.94,1243.4000
782.19,1224.8000
782.45,1238.4000
782.71,1222.4000
782.97,1245.2000
783.22,1229.0000
783.48,1227.8000
783.74,1217.4000
784.00,1232.0000
784.25,1218.0000
784.51,1213.2000
784.77,1234.8000
785.03,1226.4000
785.28,1212.4000
785.54,1203.0000
785.80,1213.6000
786.06,1212.6000
786.31,1208.0000
786.57,1221.6000
786.83,1214.4000
787.08,1220.2000
787.34,1207.8000
787.60,1230.6000
787.86,1211.8000
788.11,1207.4000
788.37,1203.6000
788.63,1195.4000
788.88,1234.4000
789.14,1212.0000
789.40,1202.4000
789.65,1202.4000
789.91,1206.0000
790.17,1200.0000
790.42,1198.2000
790.68,1194.2000
790.94,1199.0000
791.20,1203.6000
791.45,1208.6000
791.71,1183.2000
791.97,1180.8000
792.22,1203.8000
792.48,1208.4000
792.73,1189.6000
792.99,1182.8000
793.25,1178.0000
793.50,1184.6000
793.76,1200.6000
794.02,1176.4000
794.27,1169.8000
794.53,1195.6000
794.79,1187.0000
795.04,1198.0000
795.30,1179.0000
795.55,1195.0000
795.81,1168.6000
796.07,1174.0000
796.32,1178.8000
796.58,1166.4000
796.84,1185.6000
797.09,1179.0000
797.35,1182.0000
797.60,1194.6000
797.86,1185.4000
798.12,1197.4000
798.37,1191.0000
798.63,1181.6000
798.88,1167.0000
799.14,1181.2000
799.39,1169.2000
799.65,1183.0000
799.91,1153.0000
800.16,1173.2000
800.42,1172.8000
800.67,1182.4000
800.93,1164.4000
801.18,1161.0000
801.44,1175.6000
801.70,1182.4000
801.95,1171.6000
802.21,1176.0000
802.46,1150.2000
802.72,1152.8000
802.97,1179.4000
803.23,1171.2000
803.48,1179.4000
803.74,1152.8000
803.99,1138.6000
804.25,1156.0000
804.50,1171.4000
804.76,1148.8000
805.02,1148.6000
805.27,1170.2000
805.53,1161.6000
805.78,1160.6000
806.04,1179.2000
806.29,1148.8000
806.55,1172.2000
806.80,1150.8000
807.06,1188.2000
807.31,1131.8000
807.56,1161.2000
807.82,1157.4000
808.07,1163.2000
808.33,1143.8000
808.58,1152.4000
808.84,1156.0000
809.09,1142.8000
809.35,1168.4000
809.60,1140.8000
809.86,1139.2000
810.11,1148.0000
810.37,1138.8000
810.62,1132.8000
810.88,1142.6000
811.13,1141.8000
811.38,1131.4000
811.64,1144.8000
811.89,1134.6000
812.15,1123.4000
812.40,1125.4000
812.66,1129.2000
812.91,1107.0000
813.16,1104.2000
813.42,1114.6000
813.67,1116.8000
813.93,1114.0000
814.18,1110.4000
814.44,1115.8000
814.69,1100.8000
814.94,1089.0000
815.20,1100.6000
815.45,1080.6000
815.71,1087.0000
815.96,1067.4000
816.21,1081.8000
816.47,1092.8000
816.72,1074.4000
816.97,1086.0000
817.23,1081.6000
817.48,1081.0000
817.74,1083.0000
817.99,1086.0000
818.24,1112.0000
818.50,1089.0000
818.75,1105.0000
819.00,1086.8000
819.26,1092.4000
819.51,1118.4000
819.76,1088.4000
820.02,1094.4000
820.27,1099.4000
820.52,1092.0000
820.78,1085.4000
821.03,1107.2000
821.28,1100.6000
821.54,1098.2000
821.79,1090.2000
822.04,1074.0000
822.30,1048.8000
822.55,1063.6000
822.80,1057.0000
823.06,1064.0000
823.31,1081.6000
823.56,1080.6000
823.82,1101.2000
824.07,1096.2000
824.32,1092.0000
824.57,1099.0000
824.83,1111.6000
825.08,1111.6000
825.33,1093.4000
825.59,1085.0000
825.84,1090.8000
826.09,1096.6000
826.34,1098.0000
826.60,1109.6000
826.85,1085.2000
827.10,1079.0000
827.35,1095.2000
827.61,1063.2000
827.86,1084.0000
828.11,1090.8000
828.36,1068.4000
828.62,1083.0000
828.87,1077.0000
829.12,1081.4000
829.37,1093.0000
829.63,1076.8000
829.88,1082.0000
830.13,1089.6000
830.38,1084.8000
830.63,1083.0000
830.89,1083.0000
831.14,1083.6000
831.39,1085.4000
831.64,1078.6000
831.89,1088.4000
832.15,1060.2000
832.40,1092.4000
832.65,1100.4000
832.90,1077.0000
833.15,1089.4000
833.41,1090.0000
833.66,1108.2000
833.91,1088.6000
834.16,1086.0000
834.41,1087.2000
834.67,1074.4000
834.92,1090.2000
835.17,1079.6000
835.42,1086.8000
835.67,1082.4000
835.92,1097.4000
836.17,1071.2000
836.43,1084.8000
836.68,1097.4000
836.93,1088.2000
837.18,1094.6000
837.43,1072.6000
837.68,1091.4000
837.93,1082.0000
838.19,1084.2000
838.44,1076.2000
838.69,1101.6000
838.94,1091.4000
839.19,1079.0000
839.44,1086.6000
839.69,1101.8000
839.94,1083.6000
840.20,1088.4000
840.45,1106.4000
840.70,1103.4000
840.95,1082.6000
841.20,1080.4000
841.45,1084.0000
841.70,1088.2000
841.95,1091.8000
842.20,1087.0000
842.45,1106.8000
842.70,1100.0000
842.95,1077.0000
843.21,1083.0000
843.46,1078.4000
843.71,1093.4000
843.96,1103.8000
844.21,1074.2000
844.46,1079.0000
844.71,1081.4000
844.96,1109.6000
845.21,1088.2000
845.46,1077.2000
845.71,1096.4000
845.96,1084.4000
846.21,1082.8000
846.46,1090.0000
846.71,1076.2000
846.96,1070.4000
847.21,1094.2000
847.46,1079.6000
847.71,1082.8000
847.96,1079.2000
848.21,1074.4000
848.46,1089.4000
848.71,1085.6000
848.96,1079.4000
849.21,1076.2000
849.46,1068.2000
849.71,1057.2000
849.96,1059.0000
850.21,1057.4000
850.46,1072.0000
850.71,1081.0000
850.96,1060.0000
851.21,1078.6000
851.46,1065.2000
851.71,1059.4000
851.96,1055.0000
852.21,1080.8000
852.46,1076.2000
852.71,1066.8000
852.96,1068.0000
853.21,1062.2000
853.46,1061.6000
853.71,1053.4000
853.96,1035.6000
854.21,1035.8000
854.46,1074.4000
854.70,1063.8000
854.95,1071.2000
855.20,1063.2000
855.45,1079.8000
855.70,1082.6000
855.95,1076.6000
856.20,1087.8000
856.45,1068.8000
856.70,1070.4000
856.95,1078.4000
857.20,1065.6000
857.44,1089.4000
857.69,1068.2000
857.94,1065.4000
858.19,1086.0000
858.44,1069.4000
858.69,1075.0000
858.94,1077.4000
859.19,1070.8000
859.44,1057.6000
859.68,1075.6000
859.93,1065.2000
860.18,1062.0000
860.43,1073.6000
860.68,1083.4000
860.93,1073.4000
861.18,1063.6000
861.42,1070.0000
861.67,1071.8000
861.92,1079.6000
862.17,1082.4000
862.42,1074.0000
862.67,1069.4000
862.91,1064.8000
863.16,1070.0000
863.41,1064.0000
863.66,1065.6000
863.91,1071.8000
864.16,1073.8000
864.40,1058.4000
864.65,1070.4000
864.90,1054.8000
865.15,1045.2000
865.40,1046.2000
865.64,1043.0000
865.89,1051.8000
866.14,1050.0000
866.39,1038.8000
866.64,1048.2000
866.88,1038.8000
867.13,1066.6000
867.38,1064.2000
867.63,1052.2000
867.87,1056.4000
868.12,1065.6000
868.37,1070.2000
868.62,1052.2000
868.86,1048.8000
869.11,1052.2000
869.36,1062.4000
869.61,1070.0000
869.85,1056.6000
870.10,1076.0000
870.35,1069.6000
870.60,1059.0000
870.84,1052.8000
871.09,1050.8000
871.34,1059.2000
871.59,1056.4000
871.83,1062.8000
872.08,1061.8000
872.33,1041.4000
872.57,1063.6000
872.82,1059.8000
873.07,1048.4000
873.32,1060.8000
873.56,1058.4000
873.81,1057.0000
874.06,1057.2000
874.30,1040.6000
874.55,1052.6000
874.80,1053.6000
875.04,1069.0000
875.29,1050.2000
875.54,1051.0000
875.78,1034.2000
876.03,1045.8000
876.28,1043.0000
876.52,1037.8000
876.77,1036.4000
877.02,1039.8000
877.26,1041.4000
877.51,1041.6000
877.76,1056.4000
878.00,1039.0000
878.25,1041.0000
878.50,1056.4000
878.74,1049.0000
878.99,1042.8000
879.23,1040.0000
879.48,1034.2000
879.73,1052.4000
879.97,1055.4000
880.22,1034.2000
880.47,1045.4000
880.71,1034.6000
880.96,1063.2000
881.20,1039.8000
881.45,1042.6000
881.70,1034.6000
881.94,1032.2000
882.19,1031.6000
882.43,1051.0000
882.68,1036.2000
882.92,1065.0000
883.17,1039.6000
883.42,1046.6000
883.66,1034.8000
883.91,1036.2000
884.15,1029.4000
884.40,1045.6000
884.64,1031.8000
884.89,1047.4000
885.14,1047.4000
885.38,1045.2000
885.63,1037.8000
885.87,1038.0000
886.12,1035.4000
886.36,1042.0000
886.61,1034.6000
886.85,1043.4000
887.10,1032.4000
887.34,1029.4000
887.59,1029.6000
887.83,1027.4000
888.08,1044.6000
888.32,1027.6000
888.57,1046.8000
888.81,1045.0000
889.06,1045.2000
889.30,1022.0000
889.55,1028.2000
889.79,1034.2000
890.04,1025.4000
890.28,1035.8000
890.53,1036.0000
890.77,1056.4000
891.02,1035.8000
891.26,1029.6000
891.51,1028.0000
891.75,1028.4000
892.00,1029.6000
892.24,1030.2000
892.49,1019.8000
892.73,1027.4000
892.98,1028.8000
893.22,1014.0000
893.47,1005.8000
893.71,1029.8000
893.95,1019.2000
894.20,1008.6000
894.44,1011.0000
894.69,1022.2000
894.93,1047.8000
895.18,1000.0000
895.42,1024.4000
895.66,989.0000
895.91,1007.2000
896.15,1003.2000
896.40,1006.6000
896.64,1011.8000
896.88,998.2000
897.13,1017.6000
897.37,998.2000
897.62,996.0000
897.86,1011.2000
898.10,997.2000
898.35,986.8000
898.59,994.4000
898.84,998.2000
899.08,995.2000
899.32,989.4000
899.57,998.2000
899.81,984.2000
900.05,978.0000
900.30,989.0000
900.54,985.6000
900.78,1016.4000
901.03,1011.4000
901.27,987.8000
901.52,985.0000
901.76,995.0000
902.00,990.4000
902.25,999.2000
902.49,984.0000
902.73,1001.0000
902.98,998.0000
903.22,1008.2000
903.46,1006.8000
903.70,1019.8000
903.95,1004.6000
904.19,1003.6000
904.43,1009.8000
904.68,997.2000
904.92,1001.0000
905.16,992.0000
905.41,993.6000
905.65,978.2000
905.89,987.2000
906.13,1014.6000
906.38,983.8000
906.62,994.4000
906.86,985.2000
907.11,983.0000
907.35,978.8000
907.59,1004.4000
907.83,1002.8000
908.08,980.8000
908.32,973.0000
908.56,987.2000
908.80,986.4000
909.05,997.6000
909.29,988.2000
909.53,974.6000
909.77,987.0000
910.02,979.2000
910.26,984.8000
910.50,989.2000
910.74,988.6000
910.98,980.2000
911.23,1009.4000
911.47,989.2000
911.71,992.6000
911.95,972.6000
912.20,988.8000
912.44,973.8000
912.68,982.6000
912.92,979.4000
913.16,984.0000
913.41,955.8000
913.65,984.4000
913.89,991.4000
914.13,988.2000
914.37,972.8000
914.61,981.2000
914.86,975.2000
915.10,980.8000
915.34,969.2000
915.58,972.0000
915.82,967.2000
916.06,967.6000
916.31,980.8000
916.55,974.4000
916.79,983.6000
917.03,977.4000
917.27,975.8000
917.51,985.8000
917.75,982.2000
918.00,978.2000
918.24,993.2000
918.48,988.0000
918.72,1011.0000
918.96,981.6000
919.20,1001.2000
919.44,1019.4000
919.68,1016.6000
919.92,996.0000
920.17,981.6000
920.41,981.4000
920.65,991.8000
920.89,973.0000
921.13,983.0000
921.37,991.8000
921.61,967.0000
921.85,982.6000
922.09,981.0000
922.33,979.6000
922.57,980.0000
922.81,955.6000
923.05,987.8000
923.30,974.6000
923.54,969.6000
923.78,964.4000
924.02,990.2000
924.26,971.8000
924.50,972.6000
924.74,981.8000
924.98,962.8000
925.22,989.8000
925.46,970.4000
925.70,973.8000
925.94,992.8000
926.18,976.0000
926.42,990.2000
926.66,977.0000
926.90,971.4000
927.14,967.0000
927.38,967.8000
927.62,955.2000
927.86,984.0000
928.10,968.4000
928.34,949.2000
928.58,941.6000
928.82,952.2000
929.06,958.0000
929.30,976.2000
929.54,947.2000
929.78,945.2000
930.02,933.8000
930.26,959.6000
930.50,949.8000
930.74,945.2000
930.98,942.8000
931.22,949.6000
931.46,921.0000
931.70,931.8000
931.94,950.0000
932.17,931.6000
932.41,933.4000
932.65,942.6000
932.89,936.4000
933.13,930.8000
933.37,926.0000
933.61,911.0000
933.85,921.8000
934.09,922.0000
934.33,915.4000
934.57,927.2000
934.81,930.0000
935.05,945.4000
935.28,936.6000
935.52,925.0000
935.76,916.4000
936.00,932.8000
936.24,931.0000
936.48,932.8000
936.72,932.4000
936.96,927.6000
937.19,928.6000
937.43,955.2000
937.67,927.0000
937.91,929.6000
938.15,937.0000
938.39,932.8000
938.63,934.4000
938.86,933.6000
939.10,940.8000
939.34,940.2000
939.58,919.4000
939.82,936.4000
940.06,935.8000
940.30,927.4000
940.53,926.4000
940.77,928.0000
941.01,923.6000
941.25,931.2000
