Wavelength (nm),Intensity
394.27,935.6000
394.56,930.2000
394.85,934.8000
395.14,928.4000
395.44,923.4000
395.73,929.6000
396.02,928.2000
396.31,929.6000
396.61,930.8000
396.90,921.4000
397.19,925.6000
397.48,936.6000
397.77,917.4000
398.06,928.0000
398.36,927.2000
398.65,925.2000
398.94,919.6000
399.23,905.8000
399.52,922.6000
399.82,927.0000
400.11,916.6000
400.40,929.6000
400.69,914.6000
400.98,921.8000
401.27,929.8000
401.57,914.2000
401.86,921.0000
402.15,921.4000
402.44,921.6000
402.73,923.2000
403.02,929.4000
403.32,922.2000
403.61,925.4000
403.90,912.8000
404.19,932.6000
404.48,934.6000
404.77,927.6000
405.06,933.2000
405.36,933.4000
405.65,924.4000
405.94,920.0000
406.23,925.2000
406.52,941.8000
406.81,936.4000
407.10,923.4000
407.40,939.8000
407.69,924.8000
407.98,937.4000
408.27,926.6000
408.56,927.0000
408.85,948.0000
409.14,924.4000
409.43,938.6000
409.72,922.4000
410.02,949.2000
410.31,934.4000
410.60,931.4000
410.89,950.6000
411.18,935.8000
411.47,930.0000
411.76,941.8000
412.05,930.6000
412.34,943.4000
412.63,926.4000
412.93,960.8000
413.22,943.4000
413.51,928.0000
413.80,940.2000
414.09,921.8000
414.38,920.6000
414.67,933.8000
414.96,918.0000
415.25,961.2000
415.54,939.6000
415.83,923.0000
416.12,927.0000
416.41,926.2000
416.70,948.8000
417.00,944.8000
417.29,942.0000
417.58,939.6000
417.87,940.4000
418.16,941.0000
418.45,941.4000
418.74,929.2000
419.03,942.8000
419.32,958.0000
419.61,947.8000
419.90,948.2000
420.19,945.6000
420.48,946.2000
420.77,922.8000
421.06,934.6000
421.35,950.8000
421.64,954.4000
421.93,932.8000
422.22,945.6000
422.51,955.6000
422.80,954.8000
423.09,943.2000
423.38,967.6000
423.67,948.0000
423.96,951.0000
424.25,945.4000
424.54,950.8000
424.83,943.2000
425.12,952.2000
425.41,960.0000
425.70,994.0000
425.99,962.8000
426.28,958.8000
426.57,963.4000
426.86,950.6000
427.15,972.8000
427.44,980.8000
427.73,983.2000
428.02,968.2000
428.31,988.0000
428.60,979.4000
428.89,985.4000
429.18,980.6000
429.47,988.6000
429.76,978.2000
430.05,977.0000
430.34,1004.0000
430.63,984.0000
430.92,1007.4000
431.21,1007.2000
431.50,984.6000
431.79,1000.2000
432.08,993.4000
432.37,1010.8000
432.66,1007.0000
432.94,1018.0000
433.23,1022.4000
433.52,1031.8000
433.81,1032.8000
434.10,1057.2000
434.39,1034.4000
434.68,1050.2000
434.97,1036.4000
435.26,1047.0000
435.55,1062.8000
435.84,1055.4000
436.13,1063.0000
436.42,1071.0000
436.71,1069.2000
436.99,1073.2000
437.28,1090.2000
437.57,1096.6000
437.86,1110.4000
438.15,1114.2000
438.44,1102.0000
438.73,1131.6000
439.02,1144.2000
439.31,1150.8000
439.60,1139.8000
439.88,1161.0000
440.17,1169.8000
440.46,1187.0000
440.75,1190.4000
441.04,1190.4000
441.33,1223.8000
441.62,1239.6000
441.91,1242.8000
442.20,1251.6000
442.48,1283.4000
442.77,1302.4000
443.06,1318.4000
443.35,1326.4000
443.64,1354.6000
443.93,1364.8000
444.22,1402.2000
444.50,1441.0000
444.79,1440.8000
445.08,1467.4000
445.37,1478.6000
445.66,1506.6000
445.95,1524.4000
446.24,1545.0000
446.52,1584.0000
446.81,1622.2000
447.10,1626.0000
447.39,1658.0000
447.68,1684.2000
447.97,1709.8000
448.25,1756.6000
448.54,1769.6000
448.83,1784.8000
449.12,1830.2000
449.41,1806.6000
449.69,1853.6000
449.98,1858.8000
450.27,1880.6000
450.56,1894.8000
450.85,1899.8000
451.14,1901.8000
451.42,1911.8000
451.71,1929.4000
452.00,1916.4000
452.29,1922.4000
452.58,1917.8000
452.86,1939.2000
453.15,1925.2000
453.44,1910.0000
453.73,1899.4000
454.01,1893.8000
454.30,1909.6000
454.59,1856.8000
454.88,1845.2000
455.17,1816.4000
455.45,1815.0000
455.74,1818.8000
456.03,1771.4000
456.32,1759.6000
456.60,1735.4000
456.89,1721.4000
457.18,1694.4000
457.47,1671.4000
457.76,1659.6000
458.04,1651.4000
458.33,1630.8000
458.62,1608.0000
458.91,1598.2000
459.19,1583.4000
459.48,1571.4000
459.77,1579.6000
460.06,1560.8000
460.34,1545.2000
460.63,1535.4000
460.92,1526.4000
461.20,1504.0000
461.49,1521.8000
461.78,1493.6000
462.07,1484.2000
462.35,1496.4000
462.64,1488.4000
462.93,1513.2000
463.22,1503.0000
463.50,1490.2000
463.79,1485.8000
464.08,1486.0000
464.36,1461.2000
464.65,1468.8000
464.94,1455.4000
465.22,1460.6000
465.51,1460.8000
465.80,1484.8000
466.09,1450.4000
466.37,1462.0000
466.66,1455.2000
466.95,1414.0000
467.23,1432.6000
467.52,1439.0000
467.81,1441.4000
468.09,1411.0000
468.38,1416.4000
468.67,1428.4000
468.95,1414.2000
469.24,1379.6000
469.53,1403.2000
469.81,1368.4000
470.10,1365.6000
470.39,1354.4000
470.67,1350.0000
470.96,1350.8000
471.25,1345.2000
471.53,1338.4000
471.82,1332.6000
472.11,1324.8000
472.39,1309.6000
472.68,1324.2000
472.97,1295.4000
473.25,1298.6000
473.54,1280.4000
473.82,1288.0000
474.11,1278.0000
474.40,1278.6000
474.68,1293.2000
474.97,1278.0000
475.26,1267.8000
475.54,1252.6000
475.83,1264.2000
476.11,1247.6000
476.40,1249.0000
476.69,1246.2000
476.97,1247.8000
477.26,1255.4000
477.55,1267.4000
477.83,1235.0000
478.12,1248.4000
478.40,1232.6000
478.69,1227.0000
478.98,1234.6000
479.26,1227.2000
479.55,1244.8000
479.83,1236.0000
480.12,1240.0000
480.40,1246.0000
480.69,1233.2000
480.98,1241.0000
481.26,1258.2000
481.55,1249.0000
481.83,1244.4000
482.12,1241.2000
482.41,1247.6000
482.69,1250.2000
482.98,1257.8000
483.26,1273.2000
483.55,1260.2000
483.83,1253.0000
484.12,1261.4000
484.40,1269.6000
484.69,1251.0000
484.98,1275.8000
485.26,1274.4000
485.55,1274.4000
485.83,1260.0000
486.12,1290.8000
486.40,1269.0000
486.69,1278.2000
486.97,1269.4000
487.26,1298.8000
487.54,1300.4000
487.83,1290.4000
488.11,1299.2000
488.40,1314.8000
488.68,1318.4000
488.97,1304.8000
489.26,1302.4000
489.54,1307.8000
489.83,1317.0000
490.11,1320.6000
490.40,1336.8000
490.68,1334.0000
490.97,1321.8000
491.25,1343.0000
491.54,1340.6000
491.82,1350.4000
492.11,1354.0000
492.39,1379.8000
492.68,1365.2000
492.96,1369.2000
493.24,1362.4000
493.53,1374.8000
493.81,1404.0000
494.10,1386.8000
494.38,1399.8000
494.67,1419.0000
494.95,1428.6000
495.24,1418.6000
495.52,1426.6000
495.81,1433.6000
496.09,1459.2000
496.38,1438.4000
496.66,1453.2000
496.95,1458.0000
497.23,1461.8000
497.51,1454.4000
497.80,1472.8000
498.08,1481.2000
498.37,1487.6000
498.65,1512.2000
498.94,1520.6000
499.22,1502.2000
499.51,1514.0000
499.79,1531.4000
500.07,1517.4000
500.36,1552.6000
500.64,1554.8000
500.93,1542.0000
501.21,1566.4000
501.50,1561.0000
501.78,1590.6000
502.06,1582.0000
502.35,1580.0000
502.63,1594.8000
502.92,1603.0000
503.20,1640.2000
503.48,1622.0000
503.77,1616.6000
504.05,1619.4000
504.34,1630.4000
504.62,1654.6000
504.90,1648.4000
505.19,1666.0000
505.47,1657.2000
505.76,1663.2000
506.04,1672.6000
506.32,1678.2000
506.61,1678.8000
506.89,1694.0000
507.17,1684.0000
507.46,1710.4000
507.74,1725.6000
508.03,1714.0000
508.31,1723.0000
508.59,1724.4000
508.88,1728.8000
509.16,1734.4000
509.44,1762.0000
509.73,1735.0000
510.01,1740.6000
510.29,1762.6000
510.58,1765.8000
510.86,1786.6000
511.14,1796.8000
511.43,1778.2000
511.71,1796.8000
511.99,1808.2000
512.28,1792.8000
512.56,1780.8000
512.84,1799.4000
513.13,1811.6000
513.41,1824.0000
513.69,1825.0000
513.98,1823.4000
514.26,1841.0000
514.54,1828.0000
514.83,1840.2000
515.11,1858.2000
515.39,1864.4000
515.68,1866.2000
515.96,1860.8000
516.24,1864.8000
516.53,1863.6000
516.81,1888.2000
517.09,1883.0000
517.37,1879.2000
517.66,1884.6000
517.94,1896.8000
518.22,1892.4000
518.51,1891.6000
518.79,1903.4000
519.07,1892.6000
519.35,1911.0000
519.64,1917.0000
519.92,1931.0000
520.20,1944.8000
520.48,1929.6000
520.77,1915.2000
521.05,1932.2000
521.33,1938.2000
521.62,1939.8000
521.90,1937.0000
522.18,1949.6000
522.46,1938.6000
522.75,1960.4000
523.03,1958.0000
523.31,1949.2000
523.59,1982.2000
523.88,1991.4000
524.16,1975.6000
524.44,1981.4000
524.72,1998.8000
525.00,1991.6000
525.29,1972.8000
525.57,1979.2000
525.85,1986.2000
526.13,1989.4000
526.42,1982.0000
526.70,1986.0000
526.98,1990.4000
527.26,2006.0000
527.54,2012.8000
527.83,2012.0000
528.11,2034.6000
528.39,2018.8000
528.67,2029.4000
528.95,2026.0000
529.24,2020.2000
529.52,2025.2000
529.80,2038.4000
530.08,2023.2000
530.36,2034.6000
530.65,2058.2000
530.93,2050.4000
531.21,2034.6000
531.49,2042.8000
531.77,2063.4000
532.05,2057.6000
532.34,2038.0000
532.62,2044.6000
532.90,2056.8000
533.18,2088.4000
533.46,2071.0000
533.74,2077.8000
534.03,2067.8000
534.31,2072.4000
534.59,2081.8000
534.87,2073.6000
535.15,2097.2000
535.43,2085.2000
535.71,2084.4000
536.00,2108.6000
536.28,2085.6000
536.56,2093.6000
536.84,2095.2000
537.12,2094.2000
537.40,2104.2000
537.68,2105.2000
537.97,2110.4000
538.25,2110.4000
538.53,2118.2000
538.81,2139.0000
539.09,2119.4000
539.37,2119.8000
539.65,2131.0000
539.93,2126.8000
540.21,2144.0000
540.50,2124.8000
540.78,2143.0000
541.06,2166.0000
541.34,2175.4000
541.62,2174.8000
541.90,2164.6000
542.18,2161.6000
542.46,2168.6000
542.74,2165.8000
543.02,2169.2000
543.30,2167.2000
543.58,2197.2000
543.87,2182.2000
544.15,2165.6000
544.43,2201.2000
544.71,2202.8000
544.99,2206.0000
545.27,2198.8000
545.55,2196.6000
545.83,2218.6000
546.11,2229.2000
546.39,2220.8000
546.67,2250.0000
546.95,2219.6000
547.23,2228.2000
547.51,2214.4000
547.79,2250.4000
548.07,2239.6000
548.35,2236.0000
548.63,2231.2000
548.91,2269.4000
549.20,2257.0000
549.48,2294.0000
549.76,2264.0000
550.04,2274.8000
550.32,2283.8000
550.60,2252.6000
550.88,2256.0000
551.16,2313.4000
551.44,2316.2000
551.72,2304.4000
552.00,2295.6000
552.28,2315.8000
552.56,2336.0000
552.84,2333.6000
553.12,2326.6000
553.40,2347.6000
553.68,2343.0000
553.96,2357.4000
554.24,2348.0000
554.52,2355.8000
554.80,2355.0000
555.08,2386.0000
555.36,2360.0000
555.64,2368.2000
555.92,2362.8000
556.19,2386.4000
556.47,2389.6000
556.75,2392.4000
557.03,2423.4000
557.31,2420.2000
557.59,2424.2000
557.87,2403.0000
558.15,2438.0000
558.43,2415.8000
558.71,2445.4000
558.99,2447.4000
559.27,2429.0000
559.55,2433.0000
559.83,2434.4000
560.11,2460.6000
560.39,2475.4000
560.67,2497.0000
560.95,2466.6000
561.23,2475.4000
561.50,2492.0000
561.78,2481.0000
562.06,2488.6000
562.34,2481.0000
562.62,2494.8000
562.90,2542.6000
563.18,2519.6000
563.46,2536.0000
563.74,2516.4000
564.02,2515.8000
564.30,2545.6000
564.57,2539.4000
564.85,2543.4000
565.13,2565.6000
565.41,2544.6000
565.69,2557.0000
565.97,2577.2000
566.25,2565.0000
566.53,2581.8000
566.81,2592.4000
567.08,2621.8000
567.36,2581.8000
567.64,2603.2000
567.92,2591.0000
568.20,2598.2000
568.48,2599.2000
568.76,2596.0000
569.04,2626.6000
569.31,2652.4000
569.59,2651.4000
569.87,2630.0000
570.15,2632.0000
570.43,2637.4000
570.71,2646.8000
570.99,2632.2000
571.26,2657.0000
571.54,2663.4000
571.82,2668.2000
572.10,2657.8000
572.38,2661.0000
572.66,2675.4000
572.93,2680.2000
573.21,2678.2000
573.49,2679.0000
573.77,2700.2000
574.05,2693.0000
574.32,2716.6000
574.60,2719.0000
574.88,2696.8000
575.16,2707.4000
575.44,2707.4000
575.71,2727.6000
575.99,2781.2000
576.27,2718.2000
576.55,2715.0000
576.83,2770.2000
577.10,2753.2000
577.38,2744.6000
577.66,2753.6000
577.94,2790.2000
578.22,2744.2000
578.49,2798.6000
578.77,2783.0000
579.05,2789.0000
579.33,2806.6000
579.60,2795.8000
579.88,2830.2000
580.16,2829.0000
580.44,2844.6000
580.72,2844.6000
580.99,2848.4000
581.27,2855.0000
581.55,2899.8000
581.83,2865.4000
582.10,2879.2000
582.38,2894.2000
582.66,2906.8000
582.94,2906.0000
583.21,2934.0000
583.49,2938.6000
583.77,2932.8000
584.04,2962.8000
584.32,2935.4000
584.60,2993.6000
584.88,2989.8000
585.15,2986.2000
585.43,3000.6000
585.71,3003.8000
585.98,3020.2000
586.26,3015.4000
586.54,3044.6000
586.82,3059.8000
587.09,3062.8000
587.37,3087.4000
587.65,3064.2000
587.92,3080.4000
588.20,3111.6000
588.48,3130.2000
588.75,3112.0000
589.03,3132.2000
589.31,3142.4000
589.59,3142.8000
589.86,3184.2000
590.14,3163.0000
590.42,3150.6000
590.69,3207.4000
590.97,3187.2000
591.25,3203.0000
591.52,3224.0000
591.80,3243.0000
592.08,3224.6000
592.35,3259.0000
592.63,3269.0000
592.91,3282.2000
593.18,3273.2000
593.46,3259.4000
593.73,3259.8000
594.01,3300.6000
594.29,3304.8000
594.56,3321.4000
594.84,3312.2000
595.12,3374.0000
595.39,3320.0000
595.67,3331.4000
595.95,3359.0000
596.22,3342.0000
596.50,3356.0000
596.77,3361.4000
597.05,3390.8000
597.33,3404.6000
597.60,3385.6000
597.88,3383.6000
598.15,3413.8000
598.43,3413.6000
598.71,3417.0000
598.98,3462.6000
599.26,3455.6000
599.53,3406.6000
599.81,3432.6000
600.09,3445.6000
600.36,3450.4000
600.64,3455.8000
600.91,3452.2000
601.19,3450.2000
601.47,3464.4000
601.74,3453.0000
602.02,3479.6000
602.29,3493.4000
602.57,3513.2000
602.84,3497.8000
603.12,3497.4000
603.40,3497.2000
603.67,3540.8000
603.95,3528.2000
604.22,3543.4000
604.50,3503.4000
604.77,3530.4000
605.05,3504.2000
605.32,3502.6000
605.60,3552.6000
605.87,3516.6000
606.15,3539.4000
606.42,3500.0000
606.70,3540.2000
606.98,3543.6000
607.25,3557.6000
607.53,3551.6000
607.80,3551.4000
608.08,3532.4000
608.35,3558.0000
608.63,3536.0000
608.90,3562.8000
609.18,3560.2000
609.45,3554.2000
609.73,3568.4000
610.00,3578.2000
610.28,3555.2000
610.55,3551.2000
610.83,3568.0000
611.10,3575.8000
611.38,3553.8000
611.65,3560.8000
611.93,3559.4000
612.20,3571.0000
612.48,3568.4000
612.75,3574.6000
613.03,3586.4000
613.30,3572.6000
613.57,3562.4000
613.85,3559.6000
614.12,3575.8000
614.40,3545.8000
614.67,3578.4000
614.95,3555.0000
615.22,3539.2000
615.50,3542.8000
615.77,3534.2000
616.05,3511.0000
616.32,3533.6000
616.59,3535.8000
616.87,3534.8000
617.14,3521.2000
617.42,3534.4000
617.69,3525.4000
617.97,3515.0000
618.24,3510.6000
618.51,3500.2000
618.79,3511.8000
619.06,3482.0000
619.34,3540.8000
619.61,3488.0000
619.88,3478.2000
620.16,3500.2000
620.43,3478.0000
620.71,3454.2000
620.98,3502.2000
621.26,3464.8000
621.53,3480.2000
621.80,3453.8000
622.08,3472.0000
622.35,3442.2000
622.62,3444.2000
622.90,3436.4000
623.17,3405.0000
623.45,3420.4000
623.72,3405.2000
623.99,3410.0000
624.27,3430.8000
624.54,3410.6000
624.81,3382.2000
625.09,3366.4000
625.36,3363.2000
625.64,3358.4000
625.91,3347.6000
626.18,3371.2000
626.46,3367.0000
626.73,3350.2000
627.00,3358.6000
627.28,3342.6000
627.55,3330.2000
627.82,3341.8000
628.10,3335.8000
628.37,3296.2000
628.64,3318.2000
628.92,3300.2000
629.19,3315.4000
629.46,3283.6000
629.74,3299.8000
630.01,3302.8000
630.28,3304.6000
630.56,3290.0000
630.83,3288.4000
631.10,3287.8000
631.37,3262.8000
631.65,3236.0000
631.92,3246.6000
632.19,3237.8000
632.47,3231.6000
632.74,3212.4000
633.01,3176.0000
633.28,3179.8000
633.56,3171.8000
633.83,3172.2000
634.10,3175.4000
634.38,3156.6000
634.65,3191.8000
634.92,3167.8000
635.19,3157.0000
635.47,3163.2000
635.74,3117.0000
636.01,3120.4000
636.28,3084.4000
636.56,3114.4000
636.83,3090.2000
637.10,3082.6000
637.37,3068.6000
637.65,3054.2000
637.92,3043.8000
638.19,3028.0000
638.46,3022.2000
638.74,3015.2000
639.01,3028.8000
639.28,2991.2000
639.55,3011.6000
639.83,2974.0000
640.10,2982.6000
640.37,2969.8000
640.64,2951.4000
640.91,2925.0000
641.19,2924.6000
641.46,2921.2000
641.73,2939.0000
642.00,2916.4000
642.28,2910.6000
642.55,2911.6000
642.82,2908.4000
643.09,2884.0000
643.36,2875.2000
643.63,2864.2000
643.91,2872.6000
644.18,2846.8000
644.45,2847.8000
644.72,2832.4000
644.99,2822.2000
645.27,2790.0000
645.54,2811.4000
645.81,2823.4000
646.08,2800.8000
646.35,2775.6000
646.62,2770.4000
646.90,2763.4000
647.17,2753.8000
647.44,2737.6000
647.71,2736.6000
647.98,2716.0000
648.25,2714.0000
648.52,2700.4000
648.80,2698.2000
649.07,2668.4000
649.34,2679.8000
649.61,2648.4000
649.88,2646.4000
650.15,2659.0000
650.42,2627.4000
650.69,2626.8000
650.97,2622.4000
651.24,2638.0000
651.51,2606.0000
651.78,2597.0000
652.05,2565.0000
652.32,2578.0000
652.59,2576.4000
652.86,2545.6000
653.13,2550.4000
653.41,2531.0000
653.68,2538.6000
653.95,2530.8000
654.22,2511.0000
654.49,2517.6000
654.76,2477.6000
655.03,2509.4000
655.30,2461.2000
655.57,2450.4000
655.84,2465.8000
656.11,2462.2000
656.38,2432.4000
656.66,2419.8000
656.93,2416.8000
657.20,2401.6000
657.47,2431.8000
657.74,2398.4000
658.01,2394.4000
658.28,2387.8000
658.55,2371.6000
658.82,2362.0000
659.09,2373.4000
659.36,2340.8000
659.63,2325.6000
659.90,2311.0000
660.17,2329.8000
660.44,2298.4000
660.71,2293.8000
660.98,2310.6000
661.25,2307.4000
661.52,2283.0000
661.79,2262.6000
662.06,2263.6000
662.33,2268.6000
662.60,2225.4000
662.87,2252.0000
663.14,2232.6000
663.41,2214.6000
663.68,2191.4000
663.95,2200.2000
664.22,2193.0000
664.49,2197.8000
664.76,2171.0000
665.03,2147.0000
665.30,2149.8000
665.57,2170.6000
665.84,2121.0000
666.11,2149.2000
666.38,2119.4000
666.65,2131.8000
666.92,2137.0000
667.19,2105.6000
667.46,2107.8000
667.73,2096.6000
668.00,2078.4000
668.27,2085.4000
668.54,2074.2000
668.81,2054.2000
669.08,2080.6000
669.35,2035.8000
669.62,2038.4000
669.89,2035.0000
670.16,2036.2000
670.42,2011.4000
670.69,2008.6000
670.96,1991.4000
671.23,1977.8000
671.50,1975.8000
671.77,1958.2000
672.04,1962.4000
672.31,1964.2000
672.58,1942.6000
672.85,1948.8000
673.12,1925.6000
673.39,1943.4000
673.65,1908.2000
673.92,1941.0000
674.19,1908.6000
674.46,1909.8000
674.73,1910.4000
675.00,1870.2000
675.27,1890.2000
675.54,1882.0000
675.81,1878.2000
676.07,1884.6000
676.34,1874.4000
676.61,1865.0000
676.88,1841.8000
677.15,1833.8000
677.42,1840.2000
677.69,1844.6000
677.96,1822.4000
678.22,1845.8000
678.49,1815.4000
678.76,1801.0000
679.03,1800.8000
679.30,1781.4000
679.57,1778.0000
679.83,1783.2000
680.10,1783.8000
680.37,1769.0000
680.64,1753.2000
680.91,1759.0000
681.18,1747.4000
681.44,1736.2000
681.71,1717.8000
681.98,1739.8000
682.25,1721.8000
682.52,1713.4000
682.79,1715.8000
683.05,1701.6000
683.32,1699.0000
683.59,1698.6000
683.86,1706.0000
684.13,1699.4000
684.39,1677.8000
684.66,1674.4000
684.93,1674.8000
685.20,1646.2000
685.47,1656.8000
685.73,1653.8000
686.00,1637.4000
686.27,1646.8000
686.54,1632.2000
686.80,1631.4000
687.07,1623.4000
687.34,1606.8000
687.61,1608.6000
687.88,1602.6000
688.14,1613.4000
688.41,1613.8000
688.68,1587.4000
688.95,1590.4000
689.21,1592.6000
689.48,1596.6000
689.75,1572.2000
690.02,1553.8000
690.28,1568.2000
690.55,1555.4000
690.82,1535.6000
691.08,1571.0000
691.35,1545.0000
691.62,1552.4000
691.89,1546.2000
692.15,1532.6000
692.42,1537.0000
692.69,1524.2000
692.95,1522.0000
693.22,1532.4000
693.49,1501.4000
693.76,1514.2000
694.02,1512.8000
694.29,1482.6000
694.56,1495.0000
694.82,1492.8000
695.09,1465.4000
695.36,1471.8000
695.62,1468.8000
695.89,1482.6000
696.16,1460.6000
696.43,1488.6000
696.69,1487.2000
696.96,1479.0000
697.23,1465.8000
697.49,1459.0000
697.76,1458.2000
698.03,1433.8000
698.29,1423.2000
698.56,1442.6000
698.82,1428.8000
699.09,1446.0000
699.36,1437.0000
699.62,1431.2000
699.89,1420.2000
700.16,1406.6000
700.42,1420.2000
700.69,1422.2000
700.96,1411.0000
701.22,1412.6000
701.49,1393.0000
701.75,1411.0000
702.02,1389.0000
702.29,1400.4000
702.55,1407.2000
702.82,1394.6000
703.09,1381.0000
703.35,1396.4000
703.62,1392.2000
703.88,1390.2000
704.15,1370.0000
704.42,1376.6000
704.68,1377.2000
704.95,1399.0000
705.21,1372.2000
705.48,1378.6000
705.75,1359.6000
706.01,1357.4000
706.28,1338.0000
706.54,1345.8000
706.81,1341.8000
707.07,1343.8000
707.34,1339.0000
707.61,1355.0000
707.87,1359.4000
708.14,1349.6000
708.40,1330.8000
708.67,1347.4000
708.93,1330.0000
709.20,1327.8000
709.46,1343.0000
709.73,1356.6000
709.99,1329.8000
710.26,1329.4000
710.53,1324.0000
710.79,1314.8000
711.06,1333.4000
711.32,1425.6000
711.59,1337.2000
711.85,1337.8000
712.12,1317.6000
712.38,1298.4000
712.65,1311.4000
712.91,1310.0000
713.18,1329.0000
713.44,1314.6000
713.71,1292.6000
713.97,1312.8000
714.24,1300.8000
714.50,1295.8000
714.77,1312.6000
715.03,1306.8000
715.30,1321.4000
715.56,1304.0000
715.83,1294.6000
716.09,1285.4000
716.36,1299.2000
716.62,1276.4000
716.89,1263.4000
717.15,1285.8000
717.42,1255.4000
717.68,1253.4000
717.94,1247.8000
718.21,1263.8000
718.47,1273.0000
718.74,1262.2000
719.00,1266.0000
719.27,1269.4000
719.53,1257.6000
719.80,1268.4000
720.06,1243.6000
720.32,1277.0000
720.59,1267.2000
720.85,1254.2000
721.12,1248.6000
721.38,1272.0000
721.65,1278.4000
721.91,1263.0000
722.17,1264.6000
722.44,1286.8000
722.70,1266.6000
722.97,1253.2000
723.23,1257.6000
723.49,1253.8000
723.76,1250.2000
724.02,1270.6000
724.29,1253.0000
724.55,1248.6000
724.81,1265.2000
725.08,1254.2000
725.34,1266.8000
725.61,1251.0000
725.87,1252.0000
726.13,1268.0000
726.40,1265.8000
726.66,1254.8000
726.92,1260.6000
727.19,1258.6000
727.45,1239.2000
727.71,1253.0000
727.98,1244.8000
728.24,1269.0000
728.51,1258.6000
728.77,1247.2000
729.03,1248.6000
729.30,1256.2000
729.56,1234.4000
729.82,1285.6000
730.09,1251.4000
730.35,1244.2000
730.61,1263.2000
730.88,1263.0000
731.14,1258.4000
731.40,1266.8000
731.67,1272.8000
731.93,1271.4000
732.19,1281.8000
732.45,1301.4000
732.72,1268.4000
732.98,1281.8000
733.24,1290.6000
733.51,1285.8000
733.77,1286.4000
734.03,1305.2000
734.30,1299.4000
734.56,1289.8000
734.82,1257.4000
735.08,1300.2000
735.35,1281.8000
735.61,1280.8000
735.87,1292.2000
736.14,1309.2000
736.40,1304.6000
736.66,1291.8000
736.92,1278.4000
737.19,1296.2000
737.45,1303.6000
737.71,1280.0000
737.97,1298.4000
738.24,1287.6000
738.50,1295.6000
738.76,1297.8000
739.02,1281.4000
739.29,1302.0000
739.55,1305.6000
739.81,1304.8000
740.07,1301.4000
740.33,1304.8000
740.60,1293.2000
740.86,1315.0000
741.12,1295.8000
741.38,1300.0000
741.65,1302.6000
741.91,1289.2000
742.17,1320.0000
742.43,1315.0000
742.69,1303.8000
742.96,1322.2000
743.22,1318.8000
743.48,1317.0000
743.74,1315.2000
744.00,1315.8000
744.26,1298.6000
744.53,1309.6000
744.79,1307.6000
745.05,1303.8000
745.31,1294.0000
745.57,1330.8000
745.84,1314.4000
746.10,1297.4000
746.36,1298.2000
746.62,1309.0000
746.88,1312.0000
747.14,1320.2000
747.40,1313.8000
747.67,1321.2000
747.93,1314.6000
748.19,1306.6000
748.45,1322.8000
748.71,1312.4000
748.97,1322.8000
749.23,1312.2000
749.50,1317.6000
749.76,1321.6000
750.02,1289.0000
750.28,1313.0000
750.54,1303.2000
750.80,1320.2000
751.06,1302.2000
751.32,1303.0000
751.59,1321.2000
751.85,1311.2000
752.11,1319.6000
752.37,1306.4000
752.63,1323.2000
752.89,1333.0000
753.15,1325.4000
753.41,1313.4000
753.67,1313.4000
753.93,1319.4000
754.19,1306.2000
754.46,1317.6000
754.72,1298.0000
754.98,1306.4000
755.24,1305.8000
755.50,1286.2000
755.76,1304.6000
756.02,1316.4000
756.28,1299.4000
756.54,1315.0000
756.80,1329.0000
757.06,1306.0000
757.32,1281.6000
757.58,1304.0000
757.84,1309.2000
758.10,1298.2000
758.36,1289.4000
758.62,1277.6000
758.88,1248.8000
759.14,1224.4000
759.40,1156.2000
759.66,1095.8000
759.92,1071.4000
760.18,1056.0000
760.44,1056.4000
760.70,1071.2000
760.96,1079.2000
761.22,1109.2000
761.48,1136.8000
761.74,1154.8000
762.00,1149.0000
762.26,1153.4000
762.52,1120.8000
762.78,1106.8000
763.04,1118.4000
763.30,1142.8000
763.56,1119.8000
763.82,1117.2000
764.08,1149.6000
764.34,1146.6000
764.60,1169.2000
764.86,1182.8000
765.12,1162.4000
765.38,1187.2000
765.64,1209.6000
765.90,1231.2000
766.16,1204.4000
766.42,1230.4000
766.68,1238.2000
766.94,1237.8000
767.20,1241.8000
767.46,1253.8000
767.72,1236.0000
767.98,1263.2000
768.23,1265.4000
768.49,1254.4000
768.75,1272.0000
769.01,1268.2000
769.27,1257.2000
769.53,1259.8000
769.79,1284.2000
770.05,1270.6000
770.31,1265.0000
770.57,1281.8000
770.83,1253.2000
771.08,1269.4000
771.34,1249.4000
771.60,1275.8000
771.86,1246.6000
772.12,1266.6000
772.38,1266.0000
772.64,1247.2000
772.90,1255.2000
773.16,1268.6000
773.41,1265.6000
773.67,1244.0000
773.93,1262.2000
774.19,1233.0000
774.45,1255.8000
774.71,1259.0000
774.97,1250.6000
775.22,1238.0000
775.48,1254.2000
775.74,1239.2000
776.00,1255.8000
776.26,1251.4000
776.52,1229.6000
776.77,1238.2000
777.03,1261.8000
777.29,1234.8000
777.55,1253.4000
777.81,1225.8000
778.07,1248.4000
778.32,1240.0000
778.58,1242.8000
778.84,1230.0000
779.10,1248.2000
779.36,1251.0000
779.61,1231.8000
779.87,1234.4000
780.13,1230.8000
780.39,1237.4000
780.65,1227.8000
780.90,1242.8000
781.16,1228.6000
781.42,1226.0000
781.68,1235.6000
781.94,1238.6000
782.19,1232.2000
782.45,1243.0000
782.71,1248.2000
782.97,1232.2000
783.22,1235.8000
783.48,1219.0000
783.74,1221.0000
784.00,1222.4000
784.25,1226.4000
784.51,1229.4000
784.77,1239.6000
785.03,1218.8000
785.28,1222.8000
785.54,1217.2000
785.80,1218.0000
786.06,1209.8000
786.31,1202.4000
786.57,1211.0000
786.83,1209.4000
787.08,1215.2000
787.34,1211.4000
787.60,1221.8000
787.86,1212.4000
788.11,1208.8000
788.37,1205.8000
788.63,1197.4000
788.88,1221.8000
789.14,1209.8000
789.40,1202.2000
789.65,1205.2000
789.91,1200.8000
790.17,1200.6000
790.42,1181.4000
790.68,1201.8000
790.94,1186.0000
791.20,1213.0000
791.45,1193.8000
791.71,1201.6000
791.97,1182.2000
792.22,1196.4000
792.48,1194.6000
792.73,1181.0000
792.99,1200.2000
793.25,1177.4000
793.50,1198.6000
793.76,1201.6000
794.02,1179.0000
794.27,1178.4000
794.53,1191.2000
794.79,1189.8000
795.04,1200.6000
795.30,1182.0000
795.55,1184.4000
795.81,1173.8000
796.07,1185.6000
796.32,1172.4000
796.58,1180.0000
796.84,1169.4000
797.09,1171.4000
797.35,1183.4000
797.60,1175.4000
797.86,1172.4000
798.12,1202.0000
798.37,1181.0000
798.63,1174.8000
798.88,1173.0000
799.14,1170.6000
799.39,1158.8000
799.65,1184.6000
799.91,1149.2000
800.16,1167.4000
800.42,1176.6000
800.67,1174.4000
800.93,1183.4000
801.18,1170.8000
801.44,1184.2000
801.70,1166.6000
801.95,1171.4000
802.21,1164.0000
802.46,1164.0000
802.72,1157.6000
802.97,1179.2000
803.23,1185.0000
803.48,1166.0000
803.74,1164.8000
803.99,1148.2000
804.25,1162.6000
804.50,1174.0000
804.76,1169.0000
805.02,1153.4000
805.27,1171.8000
805.53,1175.6000
805.78,1150.8000
806.04,1179.4000
806.29,1157.8000
806.55,1169.4000
806.80,1163.2000
807.06,1202.8000
807.31,1151.4000
807.56,1162.8000
807.82,1163.2000
808.07,1161.6000
808.33,1149.6000
808.58,1151.0000
808.84,1160.0000
809.09,1139.4000
809.35,1156.6000
809.60,1144.2000
809.86,1155.6000
810.11,1167.0000
810.37,1139.0000
810.62,1127.8000
810.88,1127.2000
811.13,1145.2000
811.38,1130.4000
811.64,1133.0000
811.89,1136.0000
812.15,1132.4000
812.40,1126.0000
812.66,1124.8000
812.91,1117.8000
813.16,1089.4000
813.42,1108.2000
813.67,1098.4000
813.93,1102.2000
814.18,1104.4000
814.44,1115.4000
814.69,1090.4000
814.94,1094.2000
815.20,1088.0000
815.45,1069.6000
815.71,1084.6000
815.96,1074.6000
816.21,1083.2000
816.47,1094.0000
816.72,1078.8000
816.97,1088.0000
817.23,1085.6000
817.48,1070.2000
817.74,1079.0000
817.99,1088.0000
818.24,1100.2000
818.50,1098.0000
818.75,1102.4000
819.00,1090.8000
819.26,1098.4000
819.51,1126.2000
819.76,1091.2000
820.02,1098.4000
820.27,1109.2000
820.52,1092.4000
820.78,1100.0000
821.03,1103.4000
821.28,1112.2000
821.54,1100.0000
821.79,1091.0000
822.04,1076.4000
822.30,1057.2000
822.55,1065.8000
822.80,1055.4000
823.06,1052.0000
823.31,1076.4000
823.56,1084.6000
823.82,1095.0000
824.07,1100.0000
824.32,1088.6000
824.57,1100.4000
824.83,1112.2000
825.08,1118.8000
825.33,1091.0000
825.59,1084.6000
825.84,1089.6000
826.09,1105.4000
826.34,1097.8000
826.60,1098.8000
826.85,1095.2000
827.10,1082.2000
827.35,1091.0000
827.61,1069.2000
827.86,1089.8000
828.11,1091.8000
828.36,1062.4000
828.62,1076.6000
828.87,1097.2000
829.12,1087.4000
829.37,1093.6000
829.63,1073.4000
829.88,1099.0000
830.13,1093.6000
830.38,1098.0000
830.63,1073.6000
830.89,1082.8000
831.14,1093.0000
831.39,1086.2000
831.64,1085.0000
831.89,1083.4000
832.15,1070.2000
832.40,1081.2000
832.65,1091.4000
832.90,1067.2000
833.15,1083.8000
833.41,1079.0000
833.66,1109.8000
833.91,1095.0000
834.16,1084.2000
834.41,1099.2000
834.67,1076.4000
834.92,1089.2000
835.17,1080.0000
835.42,1082.6000
835.67,1085.8000
835.92,1086.8000
836.17,1084.0000
836.43,1097.4000
836.68,1101.6000
836.93,1084.0000
837.18,1086.0000
837.43,1082.2000
837.68,1092.2000
837.93,1080.8000
838.19,1086.2000
838.44,1082.0000
838.69,1101.2000
838.94,1079.0000
839.19,1086.0000
839.44,1081.8000
839.69,1104.6000
839.94,1085.2000
840.20,1096.0000
840.45,1100.0000
840.70,1108.2000
840.95,1077.6000
841.20,1073.6000
841.45,1079.0000
841.70,1095.2000
841.95,1085.4000
842.20,1092.2000
842.45,1116.6000
842.70,1098.8000
842.95,1073.2000
843.21,1100.4000
843.46,1088.2000
843.71,1089.4000
843.96,1098.8000
844.21,1075.4000
844.46,1072.6000
844.71,1090.2000
844.96,1104.4000
845.21,1091.8000
845.46,1077.0000
845.71,1098.0000
845.96,1086.8000
846.21,1087.6000
846.46,1096.2000
846.71,1081.8000
846.96,1065.0000
847.21,1091.8000
847.46,1091.2000
847.71,1082.2000
847.96,1086.0000
848.21,1079.6000
848.46,1082.4000
848.71,1081.6000
848.96,1088.0000
849.21,1078.4000
849.46,1069.0000
849.71,1068.2000
849.96,1053.8000
850.21,1058.4000
850.46,1080.4000
850.71,1070.2000
850.96,1051.4000
851.21,1075.0000
851.46,1064.8000
851.71,1070.8000
851.96,1072.8000
852.21,1069.2000
852.46,1068.8000
852.71,1071.4000
852.96,1061.6000
853.21,1061.8000
853.46,1060.0000
853.71,1048.2000
853.96,1037.2000
854.21,1044.6000
854.46,1072.6000
854.70,1060.2000
854.95,1064.8000
855.20,1076.0000
855.45,1076.8000
855.70,1070.8000
855.95,1063.2000
856.20,1071.8000
856.45,1067.2000
856.70,1080.8000
856.95,1077.2000
857.20,1060.8000
857.44,1087.6000
857.69,1052.6000
857.94,1069.4000
858.19,1084.4000
858.44,1068.6000
858.69,1065.6000
858.94,1075.6000
859.19,1064.4000
859.44,1066.0000
859.68,1063.2000
859.93,1069.0000
860.18,1060.8000
860.43,1063.6000
860.68,1074.0000
860.93,1066.8000
861.18,1072.6000
861.42,1080.2000
861.67,1072.4000
861.92,1075.4000
862.17,1075.8000
862.42,1074.0000
862.67,1070.6000
862.91,1072.6000
863.16,1063.2000
863.41,1066.8000
863.66,1077.8000
863.91,1078.2000
864.16,1074.0000
864.40,1058.6000
864.65,1052.0000
864.90,1055.0000
865.15,1045.0000
865.40,1046.8000
865.64,1053.8000
865.89,1052.2000
866.14,1046.8000
866.39,1035.4000
866.64,1045.2000
866.88,1046.4000
867.13,1059.8000
867.38,1068.6000
867.63,1036.6000
867.87,1053.0000
868.12,1059.8000
868.37,1075.4000
868.62,1045.0000
868.86,1048.8000
869.11,1047.8000
869.36,1061.2000
869.61,1061.4000
869.85,1062.6000
870.10,1069.6000
870.35,1055.2000
870.60,1060.2000
870.84,1054.2000
871.09,1049.4000
871.34,1051.4000
871.59,1042.2000
871.83,1068.6000
872.08,1069.6000
872.33,1029.0000
872.57,1059.4000
872.82,1066.4000
873.07,1049.2000
873.32,1061.4000
873.56,1052.2000
873.81,1057.4000
874.06,1063.4000
874.30,1050.4000
874.55,1051.8000
874.80,1037.6000
875.04,1060.0000
875.29,1040.6000
875.54,1045.8000
875.78,1034.4000
876.03,1045.4000
876.28,1044.4000
876.52,1038.0000
876.77,1042.6000
877.02,1054.6000
877.26,1039.4000
877.51,1036.8000
877.76,1054.2000
878.00,1044.2000
878.25,1045.0000
878.50,1054.8000
878.74,1054.6000
878.99,1052.0000
879.23,1039.6000
879.48,1038.2000
879.73,1044.4000
879.97,1059.4000
880.22,1031.2000
880.47,1033.4000
880.71,1027.8000
880.96,1052.8000
881.20,1034.6000
881.45,1043.8000
881.70,1046.0000
881.94,1047.0000
882.19,1029.8000
882.43,1051.2000
882.68,1042.0000
882.92,1062.8000
883.17,1041.4000
883.42,1049.4000
883.66,1036.8000
883.91,1044.4000
884.15,1031.0000
884.40,1050.8000
884.64,1036.6000
884.89,1054.2000
885.14,1039.0000
885.38,1041.6000
885.63,1038.0000
885.87,1032.8000
886.12,1029.8000
886.36,1043.8000
886.61,1040.6000
886.85,1035.8000
887.10,1032.6000
887.34,1031.0000
887.59,1039.4000
887.83,1037.0000
888.08,1037.2000
888.32,1025.6000
888.57,1048.0000
888.81,1039.2000
889.06,1039.0000
889.30,1034.8000
889.55,1043.8000
889.79,1037.4000
890.04,1041.2000
890.28,1030.6000
890.53,1028.4000
890.77,1052.4000
891.02,1025.6000
891.26,1030.0000
891.51,1031.6000
891.75,1025.6000
892.00,1022.8000
892.24,1006.2000
892.49,1024.6000
892.73,1039.0000
892.98,1031.8000
893.22,1019.8000
893.47,1001.2000
893.71,1024.8000
893.95,1018.4000
894.20,1017.0000
894.44,1002.0000
894.69,1022.6000
894.93,1033.2000
895.18,1007.0000
895.42,1014.6000
895.66,997.8000
895.91,1014.4000
896.15,998.6000
896.40,1007.6000
896.64,1001.8000
896.88,983.8000
897.13,1012.2000
897.37,998.6000
897.62,1005.2000
897.86,1005.6000
898.10,989.2000
898.35,983.0000
898.59,988.2000
898.84,995.2000
899.08,994.8000
899.32,996.0000
899.57,999.6000
899.81,987.0000
900.05,986.0000
900.30,987.6000
900.54,995.2000
900.78,1004.6000
901.03,1000.0000
901.27,984.4000
901.52,991.0000
901.76,988.8000
902.00,996.0000
902.25,995.8000
902.49,993.2000
902.73,1015.8000
902.98,994.8000
903.22,1011.2000
903.46,1002.0000
903.70,1006.4000
903.95,1002.8000
904.19,1013.0000
904.43,1015.6000
904.68,997.2000
904.92,1000.6000
905.16,1000.0000
905.41,1001.8000
905.65,991.4000
905.89,987.2000
906.13,1011.6000
906.38,978.6000
906.62,991.4000
906.86,983.4000
907.11,978.6000
907.35,977.4000
907.59,994.2000
907.83,1005.0000
908.08,977.2000
908.32,977.2000
908.56,993.8000
908.80,990.0000
909.05,998.6000
909.29,996.6000
909.53,984.4000
909.77,974.6000
910.02,979.4000
910.26,999.0000
910.50,984.6000
910.74,985.2000
910.98,983.8000
911.23,1005.8000
911.47,988.8000
911.71,992.2000
911.95,976.0000
912.20,994.0000
912.44,976.6000
912.68,980.2000
912.92,973.4000
913.16,985.4000
913.41,970.4000
913.65,990.8000
913.89,986.6000
914.13,981.8000
914.37,971.6000
914.61,990.2000
914.86,974.2000
915.10,979.8000
915.34,979.4000
915.58,968.0000
915.82,976.2000
916.06,978.4000
916.31,975.0000
916.55,976.2000
916.79,979.0000
917.03,982.2000
917.27,975.6000
917.51,987.4000
917.75,983.8000
918.00,966.4000
918.24,987.6000
918.48,992.2000
918.72,1007.6000
918.96,985.6000
919.20,1000.6000
919.44,1008.0000
919.68,1014.6000
919.92,1001.8000
920.17,979.8000
920.41,986.4000
920.65,995.8000
920.89,974.0000
921.13,989.4000
921.37,979.2000
921.61,965.6000
921.85,981.8000
922.09,981.2000
922.33,987.8000
922.57,988.4000
922.81,962.2000
923.05,979.0000
923.30,971.8000
923.54,962.8000
923.78,962.2000
924.02,974.6000
924.26,973.4000
924.50,968.6000
924.74,983.0000
924.98,970.0000
925.22,980.6000
925.46,971.2000
925.70,976.0000
925.94,1000.6000
926.18,984.8000
926.42,979.2000
926.66,984.8000
926.90,967.8000
927.14,965.0000
927.38,955.4000
927.62,951.6000
927.86,970.8000
928.10,974.4000
928.34,961.4000
928.58,941.2000
928.82,958.0000
929.06,959.8000
929.30,973.0000
929.54,948.8000
929.78,937.8000
930.02,924.6000
930.26,949.6000
930.50,939.4000
930.74,942.4000
930.98,942.6000
931.22,939.0000
931.46,932.6000
931.70,935.8000
931.94,937.6000
932.17,930.4000
932.41,928.4000
932.65,932.4000
932.89,923.6000
933.13,925.6000
933.37,930.8000
933.61,912.8000
933.85,928.6000
934.09,921.0000
934.33,917.0000
934.57,913.6000
934.81,930.6000
935.05,931.0000
935.28,941.0000
935.52,933.0000
935.76,923.0000
936.00,936.4000
936.24,941.6000
936.48,934.2000
936.72,936.0000
936.96,929.8000
937.19,931.2000
937.43,933.6000
937.67,917.2000
937.91,937.0000
938.15,927.4000
938.39,933.0000
938.63,943.0000
938.86,939.4000
939.10,932.8000
939.34,933.6000
939.58,923.6000
939.82,935.2000
940.06,935.0000
940.30,931.0000
940.53,930.8000
940.77,937.8000
941.01,919.0000
941.25,929.2000
