Wavelength (nm),Intensity
394.27,946.6000
394.56,935.6000
394.85,940.8000
395.14,929.4000
395.44,932.6000
395.73,935.0000
396.02,917.8000
396.31,926.8000
396.61,923.0000
396.90,929.2000
397.19,929.6000
397.48,929.0000
397.77,913.4000
398.06,928.8000
398.36,923.2000
398.65,921.8000
398.94,926.2000
399.23,912.2000
399.52,926.2000
399.82,928.6000
400.11,909.6000
400.40,927.0000
400.69,922.2000
400.98,920.8000
401.27,932.0000
401.57,917.4000
401.86,924.0000
402.15,920.0000
402.44,925.4000
402.73,922.8000
403.02,941.4000
403.32,917.2000
403.61,935.4000
403.90,925.8000
404.19,924.0000
404.48,923.0000
404.77,932.4000
405.06,944.2000
405.36,940.8000
405.65,929.2000
405.94,922.2000
406.23,945.4000
406.52,936.4000
406.81,944.6000
407.10,927.8000
407.40,932.2000
407.69,924.8000
407.98,943.0000
408.27,932.2000
408.56,918.2000
408.85,958.6000
409.14,917.8000
409.43,944.0000
409.72,923.2000
410.02,944.4000
410.31,928.2000
410.60,933.4000
410.89,936.6000
411.18,926.8000
411.47,924.4000
411.76,924.8000
412.05,924.6000
412.34,932.2000
412.63,930.4000
412.93,967.0000
413.22,943.8000
413.51,919.0000
413.80,937.6000
414.09,916.8000
414.38,923.0000
414.67,935.8000
414.96,922.4000
415.25,957.8000
415.54,942.6000
415.83,916.0000
416.12,920.4000
416.41,922.4000
416.70,933.2000
417.00,944.4000
417.29,942.8000
417.58,943.6000
417.87,931.2000
418.16,941.2000
418.45,927.6000
418.74,935.6000
419.03,931.8000
419.32,952.6000
419.61,945.8000
419.90,950.4000
420.19,952.8000
420.48,943.6000
420.77,926.2000
421.06,930.8000
421.35,955.0000
421.64,953.4000
421.93,931.0000
422.22,947.0000
422.51,957.2000
422.80,953.6000
423.09,937.8000
423.38,967.0000
423.67,953.0000
423.96,945.0000
424.25,942.6000
424.54,955.4000
424.83,941.0000
425.12,947.0000
425.41,958.8000
425.70,990.8000
425.99,960.0000
426.28,953.6000
426.57,966.4000
426.86,966.4000
427.15,966.4000
427.44,989.4000
427.73,977.2000
428.02,976.2000
428.31,982.0000
428.60,991.0000
428.89,985.6000
429.18,978.4000
429.47,978.6000
429.76,971.2000
430.05,973.2000
430.34,993.8000
430.63,981.0000
430.92,999.0000
431.21,1002.6000
431.50,992.2000
431.79,1004.0000
432.08,999.6000
432.37,999.6000
432.66,1011.0000
432.94,1008.2000
433.23,1020.6000
433.52,1029.4000
433.81,1032.4000
434.10,1067.4000
434.39,1038.8000
434.68,1060.4000
434.97,1036.0000
435.26,1048.0000
435.55,1055.0000
435.84,1056.2000
436.13,1071.4000
436.42,1076.6000
436.71,1077.4000
436.99,1075.2000
437.28,1088.8000
437.57,1092.6000
437.86,1095.0000
438.15,1115.6000
438.44,1117.6000
438.73,1124.4000
439.02,1134.4000
439.31,1149.2000
439.60,1140.0000
439.88,1161.8000
440.17,1179.2000
440.46,1190.2000
440.75,1195.2000
441.04,1191.4000
441.33,1229.2000
441.62,1241.0000
441.91,1245.6000
442.20,1252.8000
442.48,1288.8000
442.77,1289.4000
443.06,1327.0000
443.35,1317.2000
443.64,1347.6000
443.93,1359.0000
444.22,1393.2000
444.50,1419.0000
444.79,1436.8000
445.08,1446.4000
445.37,1478.6000
445.66,1500.6000
445.95,1505.4000
446.24,1546.8000
446.52,1577.8000
446.81,1624.4000
447.10,1619.2000
447.39,1658.8000
447.68,1670.8000
447.97,1688.0000
448.25,1732.0000
448.54,1765.4000
448.83,1785.6000
449.12,1813.6000
449.41,1824.4000
449.69,1840.2000
449.98,1839.6000
450.27,1863.4000
450.56,1866.6000
450.85,1887.6000
451.14,1898.4000
451.42,1902.6000
451.71,1911.8000
452.00,1918.4000
452.29,1930.8000
452.58,1923.2000
452.86,1922.6000
453.15,1908.8000
453.44,1891.8000
453.73,1890.0000
454.01,1895.4000
454.30,1899.0000
454.59,1841.8000
454.88,1836.8000
455.17,1807.4000
455.45,1819.8000
455.74,1804.4000
456.03,1758.8000
456.32,1727.0000
456.60,1722.4000
456.89,1717.0000
457.18,1695.4000
457.47,1665.6000
457.76,1669.4000
458.04,1632.8000
458.33,1631.4000
458.62,1595.6000
458.91,1579.2000
459.19,1574.0000
459.48,1564.2000
459.77,1554.4000
460.06,1546.0000
460.34,1553.6000
460.63,1539.0000
460.92,1521.2000
461.20,1526.8000
461.49,1512.6000
461.78,1496.2000
462.07,1487.4000
462.35,1506.4000
462.64,1505.8000
462.93,1495.4000
463.22,1487.6000
463.50,1491.0000
463.79,1475.0000
464.08,1487.4000
464.36,1488.0000
464.65,1460.8000
464.94,1454.4000
465.22,1470.2000
465.51,1466.8000
465.80,1468.0000
466.09,1447.8000
466.37,1460.2000
466.66,1446.8000
466.95,1427.2000
467.23,1435.0000
467.52,1418.6000
467.81,1431.4000
468.09,1416.0000
468.38,1400.8000
468.67,1432.4000
468.95,1397.4000
469.24,1394.2000
469.53,1388.6000
469.81,1384.6000
470.10,1368.2000
470.39,1354.8000
470.67,1333.6000
470.96,1356.4000
471.25,1330.4000
471.53,1350.4000
471.82,1333.8000
472.11,1319.8000
472.39,1309.4000
472.68,1310.0000
472.97,1286.2000
473.25,1296.0000
473.54,1283.0000
473.82,1279.2000
474.11,1282.0000
474.40,1268.8000
474.68,1288.8000
474.97,1274.4000
475.26,1257.6000
475.54,1232.8000
475.83,1252.0000
476.11,1256.2000
476.40,1256.6000
476.69,1242.8000
476.97,1252.8000
477.26,1248.4000
477.55,1253.4000
477.83,1222.6000
478.12,1232.0000
478.40,1233.2000
478.69,1239.2000
478.98,1232.8000
479.26,1222.2000
479.55,1241.6000
479.83,1240.8000
480.12,1253.6000
480.40,1252.2000
480.69,1236.4000
480.98,1227.8000
481.26,1255.4000
481.55,1239.0000
481.83,1257.4000
482.12,1234.2000
482.41,1250.0000
482.69,1241.2000
482.98,1257.0000
483.26,1268.8000
483.55,1258.0000
483.83,1258.0000
484.12,1256.4000
484.40,1260.6000
484.69,1247.2000
484.98,1282.0000
485.26,1281.8000
485.55,1264.0000
485.83,1254.2000
486.12,1266.6000
486.40,1278.4000
486.69,1265.6000
486.97,1279.8000
487.26,1284.0000
487.54,1276.6000
487.83,1300.0000
488.11,1292.6000
488.40,1313.4000
488.68,1310.0000
488.97,1302.0000
489.26,1313.8000
489.54,1323.8000
489.83,1316.6000
490.11,1321.6000
490.40,1337.8000
490.68,1324.4000
490.97,1317.0000
491.25,1317.0000
491.54,1344.6000
491.82,1363.8000
492.11,1333.6000
492.39,1363.4000
492.68,1366.6000
492.96,1384.4000
493.24,1361.0000
493.53,1365.0000
493.81,1402.8000
494.10,1361.6000
494.38,1388.8000
494.67,1399.0000
494.95,1428.2000
495.24,1407.2000
495.52,1434.6000
495.81,1427.6000
496.09,1431.2000
496.38,1418.0000
496.66,1451.0000
496.95,1460.4000
497.23,1464.0000
497.51,1445.8000
497.80,1464.4000
498.08,1491.4000
498.37,1483.2000
498.65,1507.4000
498.94,1509.8000
499.22,1525.4000
499.51,1515.8000
499.79,1527.0000
500.07,1515.4000
500.36,1545.2000
500.64,1545.2000
500.93,1536.8000
501.21,1564.0000
501.50,1553.4000
501.78,1564.2000
502.06,1568.0000
502.35,1558.6000
502.63,1591.2000
502.92,1592.4000
503.20,1611.8000
503.48,1622.2000
503.77,1607.8000
504.05,1628.2000
504.34,1614.4000
504.62,1644.8000
504.90,1641.6000
505.19,1648.6000
505.47,1637.6000
505.76,1657.4000
506.04,1670.6000
506.32,1678.2000
506.61,1669.2000
506.89,1683.6000
507.17,1695.6000
507.46,1688.2000
507.74,1702.8000
508.03,1714.4000
508.31,1712.2000
508.59,1707.8000
508.88,1700.4000
509.16,1735.0000
509.44,1733.4000
509.73,1754.8000
510.01,1762.4000
510.29,1753.4000
510.58,1752.4000
510.86,1759.2000
511.14,1781.6000
511.43,1763.6000
511.71,1785.4000
511.99,1774.0000
512.28,1785.4000
512.56,1769.2000
512.84,1813.6000
513.13,1814.4000
513.41,1811.2000
513.69,1841.6000
513.98,1811.0000
514.26,1844.2000
514.54,1845.0000
514.83,1841.2000
515.11,1846.6000
515.39,1855.4000
515.68,1863.8000
515.96,1855.8000
516.24,1855.6000
516.53,1859.8000
516.81,1881.4000
517.09,1846.6000
517.37,1880.8000
517.66,1873.4000
517.94,1881.2000
518.22,1875.8000
518.51,1890.4000
518.79,1907.2000
519.07,1889.4000
519.35,1898.0000
519.64,1904.6000
519.92,1936.2000
520.20,1912.0000
520.48,1909.6000
520.77,1923.6000
521.05,1919.6000
521.33,1915.0000
521.62,1939.8000
521.90,1961.2000
522.18,1935.8000
522.46,1932.8000
522.75,1938.6000
523.03,1956.6000
523.31,1958.8000
523.59,1978.4000
523.88,1978.2000
524.16,1970.8000
524.44,1973.6000
524.72,1976.8000
525.00,1981.4000
525.29,1977.4000
525.57,1965.8000
525.85,2000.8000
526.13,1972.6000
526.42,1964.6000
526.70,1988.0000
526.98,1984.8000
527.26,1980.6000
527.54,2011.2000
527.83,2004.0000
528.11,1985.4000
528.39,2034.2000
528.67,2023.6000
528.95,2009.6000
529.24,2005.8000
529.52,2033.0000
529.80,2044.8000
530.08,2035.8000
530.36,2036.6000
530.65,2025.0000
530.93,2035.2000
531.21,2052.0000
531.49,2033.6000
531.77,2036.4000
532.05,2051.2000
532.34,2045.0000
532.62,2039.4000
532.90,2043.4000
533.18,2062.8000
533.46,2061.0000
533.74,2067.0000
534.03,2070.6000
534.31,2053.4000
534.59,2064.8000
534.87,2070.6000
535.15,2087.2000
535.43,2095.0000
535.71,2075.6000
536.00,2096.2000
536.28,2086.2000
536.56,2083.0000
536.84,2112.0000
537.12,2085.2000
537.40,2104.8000
537.68,2102.0000
537.97,2121.0000
538.25,2092.2000
538.53,2115.2000
538.81,2121.2000
539.09,2095.2000
539.37,2129.6000
539.65,2121.0000
539.93,2114.6000
540.21,2134.4000
540.50,2122.2000
540.78,2142.0000
541.06,2142.6000
541.34,2132.8000
541.62,2173.2000
541.90,2158.0000
542.18,2148.0000
542.46,2164.2000
542.74,2163.6000
543.02,2163.6000
543.30,2180.4000
543.58,2165.2000
543.87,2195.0000
544.15,2159.2000
544.43,2178.0000
544.71,2174.2000
544.99,2191.2000
545.27,2203.2000
545.55,2181.8000
545.83,2193.2000
546.11,2208.4000
546.39,2211.8000
546.67,2222.2000
546.95,2221.2000
547.23,2224.4000
547.51,2221.6000
547.79,2249.8000
548.07,2244.8000
548.35,2244.2000
548.63,2223.2000
548.91,2258.6000
549.20,2264.2000
549.48,2276.8000
549.76,2270.6000
550.04,2248.8000
550.32,2277.0000
550.60,2249.4000
550.88,2261.4000
551.16,2295.4000
551.44,2283.0000
551.72,2301.8000
552.00,2299.0000
552.28,2317.4000
552.56,2325.8000
552.84,2326.4000
553.12,2337.0000
553.40,2318.0000
553.68,2340.4000
553.96,2344.8000
554.24,2329.4000
554.52,2354.4000
554.80,2318.8000
555.08,2354.8000
555.36,2359.8000
555.64,2390.6000
555.92,2368.2000
556.19,2372.8000
556.47,2372.8000
556.75,2385.4000
557.03,2378.4000
557.31,2389.0000
557.59,2414.6000
557.87,2406.2000
558.15,2420.2000
558.43,2423.4000
558.71,2429.4000
558.99,2425.6000
559.27,2431.0000
559.55,2429.6000
559.83,2433.0000
560.11,2464.0000
560.39,2432.0000
560.67,2458.6000
560.95,2480.6000
561.23,2477.6000
561.50,2477.2000
561.78,2465.2000
562.06,2470.4000
562.34,2494.4000
562.62,2491.6000
562.90,2503.0000
563.18,2507.8000
563.46,2530.0000
563.74,2532.6000
564.02,2530.4000
564.30,2512.6000
564.57,2562.2000
564.85,2518.2000
565.13,2553.2000
565.41,2536.6000
565.69,2566.0000
565.97,2572.4000
566.25,2571.2000
566.53,2563.0000
566.81,2586.6000
567.08,2598.0000
567.36,2597.8000
567.64,2577.2000
567.92,2597.2000
568.20,2590.6000
568.48,2596.2000
568.76,2612.6000
569.04,2612.4000
569.31,2636.4000
569.59,2633.4000
569.87,2620.2000
570.15,2618.4000
570.43,2624.4000
570.71,2646.6000
570.99,2645.2000
571.26,2641.2000
571.54,2651.8000
571.82,2652.4000
572.10,2651.0000
572.38,2665.6000
572.66,2649.2000
572.93,2658.0000
573.21,2647.4000
573.49,2665.0000
573.77,2709.6000
574.05,2675.8000
574.32,2685.8000
574.60,2682.4000
574.88,2706.0000
575.16,2734.0000
575.44,2699.2000
575.71,2701.4000
575.99,2766.4000
576.27,2730.2000
576.55,2714.0000
576.83,2730.2000
577.10,2729.4000
577.38,2738.2000
577.66,2764.6000
577.94,2753.8000
578.22,2740.0000
578.49,2752.8000
578.77,2771.0000
579.05,2792.8000
579.33,2809.2000
579.60,2804.0000
579.88,2809.8000
580.16,2812.2000
580.44,2830.2000
580.72,2820.6000
580.99,2820.0000
581.27,2850.4000
581.55,2875.8000
581.83,2862.0000
582.10,2898.2000
582.38,2897.6000
582.66,2883.2000
582.94,2884.4000
583.21,2916.6000
583.49,2933.2000
583.77,2921.8000
584.04,2944.2000
584.32,2936.0000
584.60,2960.4000
584.88,2977.0000
585.15,2995.4000
585.43,2969.8000
585.71,2997.6000
585.98,3020.8000
586.26,3049.6000
586.54,3023.2000
586.82,3043.0000
587.09,3066.8000
587.37,3050.8000
587.65,3051.8000
587.92,3079.4000
588.20,3092.4000
588.48,3140.4000
588.75,3101.8000
589.03,3086.4000
589.31,3127.6000
589.59,3134.2000
589.86,3161.6000
590.14,3165.0000
590.42,3178.2000
590.69,3182.4000
590.97,3179.8000
591.25,3189.6000
591.52,3230.8000
591.80,3221.2000
592.08,3235.6000
592.35,3234.8000
592.63,3261.4000
592.91,3248.0000
593.18,3254.6000
593.46,3254.2000
593.73,3269.8000
594.01,3280.8000
594.29,3306.6000
594.56,3276.4000
594.84,3308.6000
595.12,3344.6000
595.39,3339.4000
595.67,3317.4000
595.95,3320.6000
596.22,3331.2000
596.50,3331.0000
596.77,3335.0000
597.05,3371.4000
597.33,3365.2000
597.60,3384.2000
597.88,3393.2000
598.15,3402.6000
598.43,3366.2000
598.71,3428.4000
598.98,3457.8000
599.26,3466.4000
599.53,3424.2000
599.81,3452.4000
600.09,3407.6000
600.36,3417.8000
600.64,3452.8000
600.91,3436.0000
601.19,3470.6000
601.47,3470.4000
601.74,3489.4000
602.02,3444.2000
602.29,3487.2000
602.57,3481.4000
602.84,3463.4000
603.12,3484.0000
603.40,3508.4000
603.67,3492.2000
603.95,3517.6000
604.22,3555.6000
604.50,3489.8000
604.77,3516.6000
605.05,3527.8000
605.32,3520.4000
605.60,3497.6000
605.87,3519.2000
606.15,3517.0000
606.42,3501.4000
606.70,3522.2000
606.98,3526.6000
607.25,3545.8000
607.53,3531.8000
607.80,3521.6000
608.08,3531.0000
608.35,3561.0000
608.63,3547.0000
608.90,3573.8000
609.18,3553.4000
609.45,3527.2000
609.73,3533.4000
610.00,3581.4000
610.28,3561.8000
610.55,3547.8000
610.83,3531.2000
611.10,3550.8000
611.38,3550.0000
611.65,3555.6000
611.93,3561.2000
612.20,3533.2000
612.48,3505.2000
612.75,3540.0000
613.03,3555.0000
613.30,3555.0000
613.57,3567.4000
613.85,3538.4000
614.12,3564.6000
614.40,3573.0000
614.67,3545.6000
614.95,3532.6000
615.22,3517.0000
615.50,3508.8000
615.77,3558.2000
616.05,3510.6000
616.32,3528.0000
616.59,3530.6000
616.87,3518.4000
617.14,3533.6000
617.42,3506.0000
617.69,3524.2000
617.97,3509.8000
618.24,3487.0000
618.51,3483.8000
618.79,3489.0000
619.06,3509.6000
619.34,3486.8000
619.61,3468.0000
619.88,3512.4000
620.16,3486.2000
620.43,3483.0000
620.71,3472.2000
620.98,3475.4000
621.26,3443.0000
621.53,3445.8000
621.80,3455.0000
622.08,3452.2000
622.35,3432.2000
622.62,3440.6000
622.90,3446.4000
623.17,3391.8000
623.45,3424.0000
623.72,3424.8000
623.99,3368.4000
624.27,3394.4000
624.54,3394.6000
624.81,3395.0000
625.09,3363.6000
625.36,3356.4000
625.64,3358.4000
625.91,3362.6000
626.18,3379.6000
626.46,3343.2000
626.73,3356.4000
627.00,3353.0000
627.28,3320.6000
627.55,3317.4000
627.82,3300.6000
628.10,3296.2000
628.37,3301.0000
628.64,3289.4000
628.92,3288.0000
629.19,3314.2000
629.46,3285.2000
629.74,3281.8000
630.01,3271.6000
630.28,3320.6000
630.56,3282.0000
630.83,3268.0000
631.10,3283.8000
631.37,3264.0000
631.65,3242.8000
631.92,3218.4000
632.19,3232.2000
632.47,3210.6000
632.74,3195.6000
633.01,3218.4000
633.28,3159.2000
633.56,3180.4000
633.83,3161.8000
634.10,3140.6000
634.38,3165.0000
634.65,3142.2000
634.92,3176.8000
635.19,3168.6000
635.47,3150.0000
635.74,3104.0000
636.01,3124.4000
636.28,3092.8000
636.56,3086.0000
636.83,3072.6000
637.10,3063.0000
637.37,3052.6000
637.65,3021.0000
637.92,3026.8000
638.19,3042.4000
638.46,3042.4000
638.74,3001.4000
639.01,3018.8000
639.28,2975.2000
639.55,2999.0000
639.83,2939.2000
640.10,2967.6000
640.37,2976.0000
640.64,2946.6000
640.91,2943.2000
641.19,2929.8000
641.46,2937.6000
641.73,2919.8000
642.00,2887.6000
642.28,2882.6000
642.55,2887.4000
642.82,2890.0000
643.09,2862.8000
643.36,2844.8000
643.63,2877.0000
643.91,2845.2000
644.18,2814.0000
644.45,2820.8000
644.72,2820.0000
644.99,2795.4000
645.27,2794.6000
645.54,2783.8000
645.81,2815.8000
646.08,2746.2000
646.35,2738.8000
646.62,2750.0000
646.90,2724.6000
647.17,2753.6000
647.44,2726.0000
647.71,2749.2000
647.98,2710.4000
648.25,2710.0000
648.52,2677.0000
648.80,2678.2000
649.07,2673.2000
649.34,2658.8000
649.61,2646.0000
649.88,2669.4000
650.15,2642.2000
650.42,2619.6000
650.69,2614.6000
650.97,2607.6000
651.24,2604.0000
651.51,2594.4000
651.78,2602.2000
652.05,2577.4000
652.32,2558.0000
652.59,2586.4000
652.86,2540.2000
653.13,2552.6000
653.41,2535.8000
653.68,2530.8000
653.95,2506.2000
654.22,2486.2000
654.49,2511.6000
654.76,2482.4000
655.03,2484.2000
655.30,2472.8000
655.57,2459.2000
655.84,2466.8000
656.11,2432.8000
656.38,2439.8000
656.66,2408.2000
656.93,2400.0000
657.20,2401.4000
657.47,2415.2000
657.74,2402.0000
658.01,2403.6000
658.28,2367.8000
658.55,2352.4000
658.82,2351.4000
659.09,2357.2000
659.36,2355.6000
659.63,2316.8000
659.90,2308.2000
660.17,2325.0000
660.44,2295.8000
660.71,2288.8000
660.98,2295.0000
661.25,2289.8000
661.52,2264.2000
661.79,2251.2000
662.06,2247.4000
662.33,2250.4000
662.60,2226.0000
662.87,2240.6000
663.14,2205.0000
663.41,2223.2000
663.68,2176.6000
663.95,2196.0000
664.22,2187.6000
664.49,2202.6000
664.76,2149.2000
665.03,2172.4000
665.30,2158.6000
665.57,2140.4000
665.84,2134.0000
666.11,2124.4000
666.38,2126.8000
666.65,2113.2000
666.92,2129.8000
667.19,2085.8000
667.46,2110.8000
667.73,2094.4000
668.00,2058.6000
668.27,2055.2000
668.54,2077.8000
668.81,2042.2000
669.08,2076.0000
669.35,2048.6000
669.62,2045.8000
669.89,2024.8000
670.16,2019.8000
670.42,1984.6000
670.69,2020.6000
670.96,2003.4000
671.23,1982.2000
671.50,1974.6000
671.77,1970.2000
672.04,1958.4000
672.31,1963.0000
672.58,1952.2000
672.85,1954.4000
673.12,1923.6000
673.39,1940.6000
673.65,1936.8000
673.92,1916.2000
674.19,1911.4000
674.46,1914.4000
674.73,1902.6000
675.00,1891.0000
675.27,1885.4000
675.54,1886.2000
675.81,1887.8000
676.07,1855.4000
676.34,1878.2000
676.61,1860.4000
676.88,1828.6000
677.15,1835.8000
677.42,1858.2000
677.69,1834.2000
677.96,1820.8000
678.22,1811.8000
678.49,1797.8000
678.76,1808.2000
679.03,1803.2000
679.30,1781.0000
679.57,1755.0000
679.83,1788.8000
680.10,1776.2000
680.37,1756.2000
680.64,1769.8000
680.91,1747.4000
681.18,1755.2000
681.44,1739.4000
681.71,1715.8000
681.98,1725.8000
682.25,1737.8000
682.52,1707.6000
682.79,1709.0000
683.05,1707.4000
683.32,1694.4000
683.59,1705.8000
683.86,1696.8000
684.13,1709.4000
684.39,1671.0000
684.66,1673.6000
684.93,1674.8000
685.20,1659.8000
685.47,1637.8000
685.73,1658.6000
686.00,1653.0000
686.27,1647.8000
686.54,1648.0000
686.80,1647.0000
687.07,1624.4000
687.34,1603.0000
687.61,1614.6000
687.88,1598.0000
688.14,1605.0000
688.41,1604.4000
688.68,1591.0000
688.95,1585.4000
689.21,1580.6000
689.48,1581.8000
689.75,1578.8000
690.02,1548.0000
690.28,1561.8000
690.55,1562.6000
690.82,1553.2000
691.08,1545.8000
691.35,1528.8000
691.62,1536.8000
691.89,1548.2000
692.15,1530.6000
692.42,1542.4000
692.69,1501.4000
692.95,1518.4000
693.22,1530.8000
693.49,1517.8000
693.76,1507.8000
694.02,1497.8000
694.29,1494.8000
694.56,1503.6000
694.82,1499.4000
695.09,1484.4000
695.36,1473.4000
695.62,1468.4000
695.89,1463.6000
696.16,1460.6000
696.43,1481.6000
696.69,1477.4000
696.96,1482.2000
697.23,1461.2000
697.49,1458.6000
697.76,1468.2000
698.03,1444.0000
698.29,1435.0000
698.56,1439.8000
698.82,1429.6000
699.09,1432.6000
699.36,1439.4000
699.62,1426.0000
699.89,1418.4000
700.16,1406.8000
700.42,1420.8000
700.69,1412.6000
700.96,1418.6000
701.22,1419.2000
701.49,1392.0000
701.75,1416.2000
702.02,1395.4000
702.29,1384.2000
702.55,1381.6000
702.82,1390.6000
703.09,1387.4000
703.35,1388.6000
703.62,1403.8000
703.88,1399.4000
704.15,1362.2000
704.42,1375.0000
704.68,1361.4000
704.95,1377.0000
705.21,1356.6000
705.48,1359.0000
705.75,1352.8000
706.01,1382.8000
706.28,1353.8000
706.54,1340.4000
706.81,1351.2000
707.07,1341.8000
707.34,1333.6000
707.61,1347.4000
707.87,1364.0000
708.14,1357.2000
708.40,1353.2000
708.67,1333.8000
708.93,1333.4000
709.20,1331.2000
709.46,1343.4000
709.73,1350.6000
709.99,1352.6000
710.26,1320.6000
710.53,1323.0000
710.79,1301.4000
711.06,1327.4000
711.32,1418.6000
711.59,1336.8000
711.85,1323.2000
712.12,1307.0000
712.38,1311.4000
712.65,1300.2000
712.91,1304.6000
713.18,1303.8000
713.44,1313.2000
713.71,1291.2000
713.97,1308.2000
714.24,1291.2000
714.50,1300.0000
714.77,1296.4000
715.03,1305.0000
715.30,1308.2000
715.56,1293.0000
715.83,1287.2000
716.09,1297.4000
716.36,1307.8000
716.62,1270.2000
716.89,1259.8000
717.15,1281.4000
717.42,1268.4000
717.68,1244.8000
717.94,1264.2000
718.21,1260.4000
718.47,1286.0000
718.74,1264.2000
719.00,1263.4000
719.27,1265.2000
719.53,1242.8000
719.80,1245.4000
720.06,1259.4000
720.32,1265.8000
720.59,1278.4000
720.85,1269.6000
721.12,1258.4000
721.38,1291.2000
721.65,1278.0000
721.91,1279.8000
722.17,1273.4000
722.44,1274.8000
722.70,1269.4000
722.97,1277.0000
723.23,1261.6000
723.49,1243.2000
723.76,1253.0000
724.02,1268.6000
724.29,1273.4000
724.55,1250.2000
724.81,1271.6000
725.08,1257.0000
725.34,1268.4000
725.61,1251.0000
725.87,1259.2000
726.13,1262.4000
726.40,1269.2000
726.66,1263.2000
726.92,1262.4000
727.19,1242.6000
727.45,1244.2000
727.71,1258.4000
727.98,1249.2000
728.24,1275.0000
728.51,1271.0000
728.77,1243.4000
729.03,1257.0000
729.30,1258.4000
729.56,1264.6000
729.82,1282.0000
730.09,1255.6000
730.35,1251.0000
730.61,1259.6000
730.88,1252.6000
731.14,1254.8000
731.40,1262.4000
731.67,1269.2000
731.93,1279.0000
732.19,1278.4000
732.45,1303.4000
732.72,1277.8000
732.98,1286.8000
733.24,1286.4000
733.51,1289.0000
733.77,1306.8000
734.03,1303.0000
734.30,1310.8000
734.56,1306.4000
734.82,1271.4000
735.08,1290.4000
735.35,1300.6000
735.61,1300.4000
735.87,1299.4000
736.14,1289.8000
736.40,1295.0000
736.66,1293.6000
736.92,1303.6000
737.19,1302.6000
737.45,1312.0000
737.71,1300.4000
737.97,1295.4000
738.24,1296.0000
738.50,1301.0000
738.76,1294.2000
739.02,1295.2000
739.29,1307.4000
739.55,1317.8000
739.81,1294.0000
740.07,1306.4000
740.33,1316.2000
740.60,1295.8000
740.86,1329.4000
741.12,1302.4000
741.38,1311.6000
741.65,1308.0000
741.91,1312.6000
742.17,1316.0000
742.43,1300.8000
742.69,1312.0000
742.96,1337.8000
743.22,1321.8000
743.48,1329.4000
743.74,1315.4000
744.00,1321.0000
744.26,1324.0000
744.53,1313.4000
744.79,1310.2000
745.05,1307.8000
745.31,1313.4000
745.57,1321.4000
745.84,1322.8000
746.10,1309.8000
746.36,1302.8000
746.62,1321.6000
746.88,1327.6000
747.14,1326.4000
747.40,1320.0000
747.67,1318.8000
747.93,1323.0000
748.19,1320.2000
748.45,1329.2000
748.71,1331.6000
748.97,1338.8000
749.23,1322.8000
749.50,1327.8000
749.76,1321.8000
750.02,1316.8000
750.28,1327.4000
750.54,1311.8000
750.80,1314.8000
751.06,1297.0000
751.32,1331.0000
751.59,1322.8000
751.85,1317.0000
752.11,1318.4000
752.37,1332.6000
752.63,1309.6000
752.89,1331.8000
753.15,1337.4000
753.41,1315.0000
753.67,1338.8000
753.93,1327.6000
754.19,1323.0000
754.46,1332.8000
754.72,1313.6000
754.98,1301.8000
755.24,1324.0000
755.50,1294.8000
755.76,1309.4000
756.02,1321.0000
756.28,1316.6000
756.54,1309.4000
756.80,1307.8000
757.06,1313.4000
757.32,1298.2000
757.58,1297.4000
757.84,1315.2000
758.10,1292.4000
758.36,1296.4000
758.62,1287.6000
758.88,1254.6000
759.14,1230.4000
759.40,1165.6000
759.66,1095.2000
759.92,1075.8000
760.18,1054.2000
760.44,1050.6000
760.70,1068.2000
760.96,1091.0000
761.22,1123.4000
761.48,1139.4000
761.74,1168.0000
762.00,1163.6000
762.26,1147.0000
762.52,1119.8000
762.78,1126.6000
763.04,1130.6000
763.30,1141.0000
763.56,1127.6000
763.82,1132.4000
764.08,1161.6000
764.34,1171.8000
764.60,1175.6000
764.86,1174.6000
765.12,1176.6000
765.38,1205.2000
765.64,1216.4000
765.90,1230.8000
766.16,1228.4000
766.42,1224.6000
766.68,1247.0000
766.94,1232.2000
767.20,1254.6000
767.46,1263.2000
767.72,1252.0000
767.98,1267.0000
768.23,1269.6000
768.49,1264.8000
768.75,1283.0000
769.01,1281.8000
769.27,1260.8000
769.53,1276.0000
769.79,1268.0000
770.05,1278.8000
770.31,1268.6000
770.57,1291.2000
770.83,1264.6000
771.08,1283.8000
771.34,1265.2000
771.60,1280.0000
771.86,1270.2000
772.12,1262.0000
772.38,1268.8000
772.64,1260.8000
772.90,1273.8000
773.16,1276.8000
773.41,1273.6000
773.67,1271.0000
773.93,1260.6000
774.19,1259.0000
774.45,1265.4000
774.71,1266.8000
774.97,1262.2000
775.22,1257.2000
775.48,1286.8000
775.74,1244.2000
776.00,1264.0000
776.26,1255.4000
776.52,1246.0000
776.77,1251.0000
777.03,1265.4000
777.29,1256.0000
777.55,1242.2000
777.81,1252.2000
778.07,1255.8000
778.32,1259.2000
778.58,1236.8000
778.84,1243.0000
779.10,1245.0000
779.36,1241.8000
779.61,1235.2000
779.87,1243.2000
780.13,1247.8000
780.39,1245.2000
780.65,1228.6000
780.90,1236.4000
781.16,1251.8000
781.42,1239.4000
781.68,1245.0000
781.94,1250.4000
782.19,1246.4000
782.45,1234.4000
782.71,1245.8000
782.97,1240.2000
783.22,1259.8000
783.48,1240.2000
783.74,1218.4000
784.00,1243.6000
784.25,1233.2000
784.51,1233.4000
784.77,1248.0000
785.03,1226.8000
785.28,1231.6000
785.54,1219.6000
785.80,1233.8000
786.06,1224.2000
786.31,1220.4000
786.57,1221.6000
786.83,1228.8000
787.08,1219.8000
787.34,1208.0000
787.60,1221.2000
787.86,1214.8000
788.11,1223.6000
788.37,1215.6000
788.63,1219.6000
788.88,1223.2000
789.14,1200.6000
789.40,1209.2000
789.65,1205.6000
789.91,1212.0000
790.17,1188.4000
790.42,1205.8000
790.68,1198.6000
790.94,1191.2000
791.20,1232.2000
791.45,1223.2000
791.71,1206.4000
791.97,1197.8000
792.22,1213.2000
792.48,1200.4000
792.73,1184.4000
792.99,1206.2000
793.25,1177.0000
793.50,1200.4000
793.76,1196.2000
794.02,1180.2000
794.27,1178.6000
794.53,1197.8000
794.79,1188.4000
795.04,1207.0000
795.30,1185.0000
795.55,1195.2000
795.81,1176.6000
796.07,1186.0000
796.32,1185.6000
796.58,1179.4000
796.84,1189.4000
797.09,1190.8000
797.35,1193.8000
797.60,1192.2000
797.86,1186.2000
798.12,1203.0000
798.37,1200.8000
798.63,1190.8000
798.88,1184.0000
799.14,1185.8000
799.39,1167.8000
799.65,1185.0000
799.91,1160.4000
800.16,1175.0000
800.42,1176.4000
800.67,1192.6000
800.93,1180.2000
801.18,1147.4000
801.44,1173.4000
801.70,1174.0000
801.95,1181.4000
802.21,1157.8000
802.46,1153.6000
802.72,1164.6000
802.97,1178.2000
803.23,1184.6000
803.48,1175.2000
803.74,1164.6000
803.99,1166.0000
804.25,1157.2000
804.50,1190.0000
804.76,1153.6000
805.02,1164.4000
805.27,1173.6000
805.53,1193.2000
805.78,1162.6000
806.04,1174.4000
806.29,1161.6000
806.55,1159.0000
806.80,1170.4000
807.06,1185.8000
807.31,1160.4000
807.56,1165.4000
807.82,1174.2000
808.07,1180.2000
808.33,1159.0000
808.58,1147.0000
808.84,1162.8000
809.09,1145.2000
809.35,1156.2000
809.60,1139.2000
809.86,1161.8000
810.11,1152.4000
810.37,1150.6000
810.62,1138.6000
810.88,1136.2000
811.13,1140.2000
811.38,1130.4000
811.64,1137.8000
811.89,1132.6000
812.15,1131.4000
812.40,1127.4000
812.66,1137.6000
812.91,1117.2000
813.16,1093.6000
813.42,1105.0000
813.67,1111.6000
813.93,1103.0000
814.18,1104.6000
814.44,1131.6000
814.69,1104.4000
814.94,1088.6000
815.20,1092.6000
815.45,1080.0000
815.71,1081.2000
815.96,1081.6000
816.21,1092.2000
816.47,1093.2000
816.72,1081.8000
816.97,1088.4000
817.23,1083.8000
817.48,1077.4000
817.74,1090.8000
817.99,1083.4000
818.24,1103.2000
818.50,1084.0000
818.75,1108.8000
819.00,1100.4000
819.26,1103.8000
819.51,1112.0000
819.76,1085.0000
820.02,1098.6000
820.27,1107.2000
820.52,1090.6000
820.78,1105.6000
821.03,1116.6000
821.28,1122.4000
821.54,1105.2000
821.79,1104.0000
822.04,1083.8000
822.30,1058.4000
822.55,1081.2000
822.80,1074.0000
823.06,1064.6000
823.31,1087.4000
823.56,1095.8000
823.82,1106.8000
824.07,1113.8000
824.32,1102.4000
824.57,1093.0000
824.83,1120.4000
825.08,1122.2000
825.33,1098.0000
825.59,1088.6000
825.84,1086.2000
826.09,1103.4000
826.34,1100.4000
826.60,1113.2000
826.85,1091.6000
827.10,1101.4000
827.35,1092.4000
827.61,1065.6000
827.86,1087.4000
828.11,1093.0000
828.36,1083.6000
828.62,1100.4000
828.87,1090.4000
829.12,1083.6000
829.37,1100.4000
829.63,1087.0000
829.88,1092.4000
830.13,1089.2000
830.38,1100.4000
830.63,1086.8000
830.89,1094.8000
831.14,1091.2000
831.39,1088.6000
831.64,1084.0000
831.89,1083.6000
832.15,1076.0000
832.40,1093.6000
832.65,1093.2000
832.90,1090.6000
833.15,1087.4000
833.41,1087.4000
833.66,1121.6000
833.91,1110.2000
834.16,1098.8000
834.41,1099.6000
834.67,1080.6000
834.92,1114.6000
835.17,1090.4000
835.42,1090.2000
835.67,1083.0000
835.92,1099.2000
836.17,1090.2000
836.43,1099.4000
836.68,1102.6000
836.93,1082.4000
837.18,1097.4000
837.43,1084.6000
837.68,1091.6000
837.93,1088.6000
838.19,1087.4000
838.44,1082.0000
838.69,1109.6000
838.94,1091.6000
839.19,1074.8000
839.44,1091.0000
839.69,1093.6000
839.94,1085.0000
840.20,1107.4000
840.45,1108.8000
840.70,1103.0000
840.95,1089.8000
841.20,1090.2000
841.45,1094.6000
841.70,1097.0000
841.95,1094.6000
842.20,1092.0000
842.45,1112.0000
842.70,1091.0000
842.95,1087.0000
843.21,1088.2000
843.46,1088.2000
843.71,1091.4000
843.96,1098.6000
844.21,1086.8000
844.46,1088.8000
844.71,1085.0000
844.96,1108.8000
845.21,1092.2000
845.46,1082.0000
845.71,1083.0000
845.96,1090.2000
846.21,1093.8000
846.46,1089.8000
846.71,1090.8000
846.96,1080.2000
847.21,1096.6000
847.46,1080.2000
847.71,1084.8000
847.96,1088.8000
848.21,1078.6000
848.46,1087.6000
848.71,1082.4000
848.96,1079.8000
849.21,1087.4000
849.46,1050.2000
849.71,1073.6000
849.96,1063.6000
850.21,1065.4000
850.46,1082.2000
850.71,1074.0000
850.96,1060.8000
851.21,1071.6000
851.46,1073.4000
851.71,1063.6000
851.96,1065.4000
852.21,1078.0000
852.46,1067.4000
852.71,1079.8000
852.96,1076.0000
853.21,1066.4000
853.46,1059.6000
853.71,1057.4000
853.96,1036.2000
854.21,1039.8000
854.46,1079.8000
854.70,1068.4000
854.95,1072.4000
855.20,1069.2000
855.45,1086.4000
855.70,1074.2000
855.95,1066.8000
856.20,1076.6000
856.45,1059.6000
856.70,1069.2000
856.95,1084.8000
857.20,1069.0000
857.44,1090.8000
857.69,1058.4000
857.94,1069.6000
858.19,1084.6000
858.44,1068.6000
858.69,1077.6000
858.94,1071.2000
859.19,1064.4000
859.44,1070.0000
859.68,1068.0000
859.93,1083.8000
860.18,1063.2000
860.43,1061.6000
860.68,1090.8000
860.93,1070.6000
861.18,1070.8000
861.42,1071.8000
861.67,1067.6000
861.92,1080.8000
862.17,1077.4000
862.42,1074.8000
862.67,1071.2000
862.91,1066.6000
863.16,1063.0000
863.41,1080.4000
863.66,1086.0000
863.91,1086.0000
864.16,1070.2000
864.40,1058.8000
864.65,1074.8000
864.90,1051.0000
865.15,1057.0000
865.40,1042.4000
865.64,1047.4000
865.89,1046.2000
866.14,1052.8000
866.39,1049.2000
866.64,1053.8000
866.88,1052.0000
867.13,1056.4000
867.38,1080.6000
867.63,1039.4000
867.87,1059.8000
868.12,1071.0000
868.37,1075.4000
868.62,1052.0000
868.86,1059.0000
869.11,1043.2000
869.36,1066.4000
869.61,1066.4000
869.85,1060.6000
870.10,1070.6000
870.35,1069.0000
870.60,1061.2000
870.84,1065.0000
871.09,1045.8000
871.34,1065.8000
871.59,1066.2000
871.83,1070.4000
872.08,1066.6000
872.33,1044.2000
872.57,1059.0000
872.82,1068.2000
873.07,1048.4000
873.32,1064.8000
873.56,1064.6000
873.81,1049.4000
874.06,1051.6000
874.30,1053.4000
874.55,1062.0000
874.80,1041.0000
875.04,1067.2000
875.29,1057.6000
875.54,1062.4000
875.78,1043.6000
876.03,1065.6000
876.28,1036.2000
876.52,1047.4000
876.77,1060.0000
877.02,1064.2000
877.26,1034.8000
877.51,1044.2000
877.76,1061.4000
878.00,1050.0000
878.25,1045.0000
878.50,1060.4000
878.74,1052.4000
878.99,1049.8000
879.23,1035.6000
879.48,1042.2000
879.73,1047.8000
879.97,1055.2000
880.22,1040.4000
880.47,1035.2000
880.71,1028.2000
880.96,1058.4000
881.20,1046.6000
881.45,1045.0000
881.70,1052.4000
881.94,1039.2000
882.19,1039.4000
882.43,1049.4000
882.68,1038.0000
882.92,1070.4000
883.17,1046.6000
883.42,1052.6000
883.66,1045.4000
883.91,1034.4000
884.15,1029.8000
884.40,1051.0000
884.64,1033.4000
884.89,1056.4000
885.14,1033.0000
885.38,1051.8000
885.63,1038.4000
885.87,1036.8000
886.12,1046.8000
886.36,1037.0000
886.61,1048.4000
886.85,1042.2000
887.10,1040.6000
887.34,1034.4000
887.59,1041.4000
887.83,1034.0000
888.08,1047.0000
888.32,1025.6000
888.57,1044.6000
888.81,1039.2000
889.06,1061.6000
889.30,1029.6000
889.55,1029.8000
889.79,1039.0000
890.04,1045.2000
890.28,1026.8000
890.53,1032.2000
890.77,1054.6000
891.02,1030.6000
891.26,1044.4000
891.51,1034.4000
891.75,1026.8000
892.00,1033.0000
892.24,1020.4000
892.49,1030.6000
892.73,1039.0000
892.98,1024.6000
893.22,1021.2000
893.47,1009.2000
893.71,1018.0000
893.95,1016.8000
894.20,1019.6000
894.44,1011.0000
894.69,1033.6000
894.93,1049.2000
895.18,1000.4000
895.42,1015.8000
895.66,1010.0000
895.91,1002.2000
896.15,997.6000
896.40,1020.0000
896.64,1034.0000
896.88,1001.6000
897.13,1003.6000
897.37,1000.8000
897.62,1010.2000
897.86,1010.8000
898.10,991.4000
898.35,992.0000
898.59,992.0000
898.84,995.2000
899.08,990.4000
899.32,1007.0000
899.57,1012.6000
899.81,990.4000
900.05,984.6000
900.30,998.2000
900.54,988.4000
900.78,1008.8000
901.03,1003.8000
901.27,985.6000
901.52,989.6000
901.76,997.8000
902.00,997.6000
902.25,993.0000
902.49,994.2000
902.73,1004.6000
902.98,1000.8000
903.22,1001.0000
903.46,1004.4000
903.70,1008.8000
903.95,1007.4000
904.19,1012.0000
904.43,1024.2000
904.68,1009.6000
904.92,994.0000
905.16,1002.6000
905.41,1018.2000
905.65,986.6000
905.89,985.4000
906.13,1008.4000
906.38,982.2000
906.62,1001.8000
906.86,976.2000
907.11,990.6000
907.35,999.0000
907.59,1010.0000
907.83,1006.6000
908.08,984.8000
908.32,979.6000
908.56,993.0000
908.80,985.6000
909.05,997.4000
909.29,1001.0000
909.53,980.2000
909.77,981.2000
910.02,978.4000
910.26,999.8000
910.50,985.8000
910.74,992.0000
910.98,985.6000
911.23,1005.0000
911.47,981.6000
911.71,996.6000
911.95,986.2000
912.20,994.0000
912.44,969.0000
912.68,970.6000
912.92,978.4000
913.16,979.8000
913.41,964.4000
913.65,989.4000
913.89,981.4000
914.13,975.4000
914.37,968.4000
914.61,996.6000
914.86,972.8000
915.10,970.8000
915.34,975.2000
915.58,970.6000
915.82,966.0000
916.06,973.0000
916.31,982.4000
916.55,977.4000
916.79,987.4000
917.03,982.4000
917.27,968.6000
917.51,985.8000
917.75,975.0000
918.00,985.0000
918.24,999.4000
918.48,990.2000
918.72,1014.0000
918.96,994.0000
919.20,1007.0000
919.44,1004.0000
919.68,1018.8000
919.92,991.4000
920.17,978.4000
920.41,990.2000
920.65,990.0000
920.89,990.8000
921.13,991.4000
921.37,994.8000
921.61,965.2000
921.85,980.0000
922.09,979.0000
922.33,992.2000
922.57,982.6000
922.81,969.4000
923.05,991.6000
923.30,969.8000
923.54,976.6000
923.78,964.6000
924.02,988.0000
924.26,980.0000
924.50,963.0000
924.74,979.4000
924.98,973.4000
925.22,979.4000
925.46,975.0000
925.70,979.2000
925.94,993.6000
926.18,974.2000
926.42,976.2000
926.66,977.4000
926.90,964.2000
927.14,963.2000
927.38,954.8000
927.62,964.8000
927.86,987.6000
928.10,972.6000
928.34,944.4000
928.58,947.0000
928.82,955.8000
929.06,961.2000
929.30,974.4000
929.54,950.4000
929.78,943.8000
930.02,930.8000
930.26,944.4000
930.50,940.6000
930.74,936.6000
930.98,952.4000
931.22,939.6000
931.46,933.0000
931.70,939.2000
931.94,943.2000
932.17,925.4000
932.41,948.8000
932.65,937.2000
932.89,936.0000
933.13,924.6000
933.37,936.4000
933.61,918.2000
933.85,931.2000
934.09,923.0000
934.33,925.8000
934.57,914.4000
934.81,921.2000
935.05,940.8000
935.28,937.8000
935.52,926.6000
935.76,917.8000
936.00,936.8000
936.24,933.0000
936.48,927.6000
936.72,937.8000
936.96,939.0000
937.19,932.2000
937.43,945.8000
937.67,923.8000
937.91,929.8000
938.15,932.4000
938.39,932.0000
938.63,928.2000
938.86,930.0000
939.10,940.8000
939.34,928.4000
939.58,926.2000
939.82,937.0000
940.06,946.8000
940.30,928.8000
940.53,928.8000
940.77,935.2000
941.01,921.6000
941.25,931.6000
