Wavelength (nm),Intensity
394.27,942.0000
394.56,924.8000
394.85,944.0000
395.14,930.2000
395.44,936.2000
395.73,927.8000
396.02,919.2000
396.31,917.0000
396.61,924.0000
396.90,918.0000
397.19,930.8000
397.48,929.0000
397.77,923.0000
398.06,928.4000
398.36,929.4000
398.65,924.0000
398.94,918.2000
399.23,916.0000
399.52,920.6000
399.82,922.0000
400.11,923.8000
400.40,927.6000
400.69,921.2000
400.98,923.4000
401.27,928.6000
401.57,905.2000
401.86,920.0000
402.15,922.0000
402.44,931.6000
402.73,920.6000
403.02,932.0000
403.32,915.4000
403.61,922.4000
403.90,916.4000
404.19,926.4000
404.48,931.8000
404.77,927.8000
405.06,939.6000
405.36,941.2000
405.65,935.6000
405.94,916.0000
406.23,927.6000
406.52,940.0000
406.81,939.6000
407.10,935.4000
407.40,932.2000
407.69,929.2000
407.98,936.2000
408.27,930.8000
408.56,926.8000
408.85,951.0000
409.14,914.4000
409.43,931.0000
409.72,930.0000
410.02,954.0000
410.31,932.6000
410.60,931.2000
410.89,936.4000
411.18,938.4000
411.47,929.8000
411.76,926.8000
412.05,935.2000
412.34,931.4000
412.63,923.8000
412.93,955.0000
413.22,943.4000
413.51,930.8000
413.80,938.8000
414.09,930.2000
414.38,935.0000
414.67,941.2000
414.96,925.4000
415.25,964.6000
415.54,947.4000
415.83,928.8000
416.12,920.4000
416.41,923.0000
416.70,951.4000
417.00,931.0000
417.29,936.2000
417.58,940.0000
417.87,941.6000
418.16,950.6000
418.45,934.6000
418.74,943.8000
419.03,936.4000
419.32,959.6000
419.61,946.2000
419.90,958.8000
420.19,957.6000
420.48,941.8000
420.77,927.6000
421.06,945.8000
421.35,957.8000
421.64,947.8000
421.93,940.4000
422.22,958.4000
422.51,965.2000
422.80,953.4000
423.09,943.6000
423.38,965.2000
423.67,959.4000
423.96,953.2000
424.25,949.6000
424.54,949.8000
424.83,941.6000
425.12,948.8000
425.41,959.6000
425.70,996.8000
425.99,966.2000
426.28,965.8000
426.57,971.8000
426.86,976.6000
427.15,974.2000
427.44,988.4000
427.73,977.0000
428.02,975.6000
428.31,979.2000
428.60,994.0000
428.89,987.2000
429.18,991.6000
429.47,991.8000
429.76,983.4000
430.05,979.4000
430.34,995.0000
430.63,985.8000
430.92,1006.2000
431.21,1013.4000
431.50,997.4000
431.79,995.2000
432.08,1013.4000
432.37,1006.8000
432.66,1011.2000
432.94,1018.8000
433.23,1039.8000
433.52,1033.0000
433.81,1040.4000
434.10,1073.8000
434.39,1048.4000
434.68,1067.8000
434.97,1046.0000
435.26,1054.6000
435.55,1077.4000
435.84,1062.4000
436.13,1083.2000
436.42,1105.6000
436.71,1091.4000
436.99,1098.6000
437.28,1097.8000
437.57,1116.6000
437.86,1110.2000
438.15,1127.2000
438.44,1129.4000
438.73,1160.8000
439.02,1159.8000
439.31,1181.6000
439.60,1183.6000
439.88,1184.0000
440.17,1197.4000
440.46,1225.4000
440.75,1205.6000
441.04,1221.6000
441.33,1270.0000
441.62,1289.2000
441.91,1281.8000
442.20,1299.8000
442.48,1328.0000
442.77,1341.6000
443.06,1358.8000
443.35,1372.4000
443.64,1396.4000
443.93,1426.2000
444.22,1441.4000
444.50,1470.4000
444.79,1501.0000
445.08,1524.8000
445.37,1535.2000
445.66,1565.2000
445.95,1592.6000
446.24,1621.6000
446.52,1641.6000
446.81,1715.6000
447.10,1703.0000
447.39,1740.0000
447.68,1761.6000
447.97,1781.0000
448.25,1834.0000
448.54,1855.6000
448.83,1897.0000
449.12,1911.6000
449.41,1925.2000
449.69,1949.0000
449.98,1967.8000
450.27,1966.4000
450.56,1967.2000
450.85,2001.4000
451.14,1995.8000
451.42,2026.4000
451.71,2009.8000
452.00,2026.0000
452.29,2042.0000
452.58,2023.4000
452.86,2037.0000
453.15,2011.6000
453.44,2006.4000
453.73,2011.8000
454.01,1981.0000
454.30,2005.0000
454.59,1949.8000
454.88,1938.6000
455.17,1930.6000
455.45,1907.8000
455.74,1907.0000
456.03,1881.0000
456.32,1843.2000
456.60,1829.0000
456.89,1797.2000
457.18,1777.0000
457.47,1761.6000
457.76,1745.4000
458.04,1740.6000
458.33,1713.6000
458.62,1688.2000
458.91,1659.8000
459.19,1648.4000
459.48,1625.8000
459.77,1627.6000
460.06,1612.2000
460.34,1617.6000
460.63,1590.8000
460.92,1589.0000
461.20,1586.2000
461.49,1584.2000
461.78,1570.2000
462.07,1559.8000
462.35,1563.8000
462.64,1554.0000
462.93,1559.4000
463.22,1548.8000
463.50,1545.2000
463.79,1539.2000
464.08,1536.0000
464.36,1530.2000
464.65,1535.0000
464.94,1529.0000
465.22,1519.0000
465.51,1517.0000
465.80,1525.4000
466.09,1503.6000
466.37,1522.0000
466.66,1498.8000
466.95,1475.0000
467.23,1469.4000
467.52,1493.6000
467.81,1496.0000
468.09,1460.6000
468.38,1455.4000
468.67,1475.0000
468.95,1448.4000
469.24,1437.4000
469.53,1432.8000
469.81,1435.8000
470.10,1406.0000
470.39,1410.2000
470.67,1391.2000
470.96,1394.8000
471.25,1386.0000
471.53,1397.8000
471.82,1370.2000
472.11,1359.4000
472.39,1357.6000
472.68,1358.4000
472.97,1344.0000
473.25,1341.2000
473.54,1315.2000
473.82,1317.0000
474.11,1326.4000
474.40,1312.6000
474.68,1327.6000
474.97,1322.0000
475.26,1302.0000
475.54,1291.8000
475.83,1283.2000
476.11,1299.6000
476.40,1290.8000
476.69,1282.8000
476.97,1282.4000
477.26,1272.6000
477.55,1292.4000
477.83,1262.8000
478.12,1279.6000
478.40,1280.0000
478.69,1264.0000
478.98,1291.2000
479.26,1258.4000
479.55,1285.8000
479.83,1259.4000
480.12,1276.0000
480.40,1283.0000
480.69,1282.8000
480.98,1280.0000
481.26,1298.2000
481.55,1290.4000
481.83,1283.2000
482.12,1279.0000
482.41,1301.8000
482.69,1287.2000
482.98,1293.0000
483.26,1301.4000
483.55,1295.6000
483.83,1302.2000
484.12,1301.0000
484.40,1301.6000
484.69,1280.6000
484.98,1309.4000
485.26,1295.0000
485.55,1307.0000
485.83,1289.6000
486.12,1313.6000
486.40,1309.8000
486.69,1306.2000
486.97,1325.6000
487.26,1325.8000
487.54,1325.0000
487.83,1334.6000
488.11,1348.2000
488.40,1351.4000
488.68,1349.2000
488.97,1338.6000
489.26,1360.2000
489.54,1355.8000
489.83,1365.8000
490.11,1369.4000
490.40,1387.8000
490.68,1371.4000
490.97,1354.2000
491.25,1393.8000
491.54,1370.8000
491.82,1397.0000
492.11,1409.6000
492.39,1418.0000
492.68,1394.2000
492.96,1434.4000
493.24,1413.0000
493.53,1402.2000
493.81,1452.2000
494.10,1437.6000
494.38,1445.8000
494.67,1465.8000
494.95,1462.0000
495.24,1467.4000
495.52,1474.6000
495.81,1486.4000
496.09,1493.8000
496.38,1482.2000
496.66,1516.2000
496.95,1504.2000
497.23,1529.8000
497.51,1522.6000
497.80,1539.6000
498.08,1531.4000
498.37,1540.8000
498.65,1557.4000
498.94,1584.6000
499.22,1561.0000
499.51,1575.6000
499.79,1586.6000
500.07,1576.8000
500.36,1599.6000
500.64,1623.8000
500.93,1607.8000
501.21,1627.4000
501.50,1621.4000
501.78,1633.4000
502.06,1625.0000
502.35,1645.4000
502.63,1645.4000
502.92,1676.8000
503.20,1664.2000
503.48,1691.0000
503.77,1701.4000
504.05,1698.0000
504.34,1692.6000
504.62,1707.6000
504.90,1711.6000
505.19,1734.6000
505.47,1717.6000
505.76,1714.8000
506.04,1739.4000
506.32,1767.2000
506.61,1772.6000
506.89,1775.4000
507.17,1756.8000
507.46,1772.0000
507.74,1803.4000
508.03,1803.4000
508.31,1813.0000
508.59,1787.4000
508.88,1800.2000
509.16,1824.8000
509.44,1828.6000
509.73,1828.2000
510.01,1827.2000
510.29,1846.8000
510.58,1831.4000
510.86,1871.6000
511.14,1890.6000
511.43,1862.2000
511.71,1885.0000
511.99,1901.0000
512.28,1893.4000
512.56,1876.2000
512.84,1891.6000
513.13,1883.8000
513.41,1921.0000
513.69,1926.4000
513.98,1916.2000
514.26,1922.8000
514.54,1929.6000
514.83,1932.6000
515.11,1956.2000
515.39,1952.0000
515.68,1948.2000
515.96,1965.0000
516.24,1948.6000
516.53,1954.0000
516.81,1978.2000
517.09,1941.8000
517.37,1970.4000
517.66,1991.4000
517.94,1977.6000
518.22,1983.0000
518.51,1967.4000
518.79,1987.4000
519.07,2012.0000
519.35,1986.6000
519.64,2012.6000
519.92,2027.4000
520.20,2031.0000
520.48,2020.0000
520.77,2039.8000
521.05,2032.2000
521.33,2016.4000
521.62,2028.6000
521.90,2055.4000
522.18,2025.0000
522.46,2033.6000
522.75,2057.6000
523.03,2057.0000
523.31,2066.6000
523.59,2074.2000
523.88,2072.2000
524.16,2053.6000
524.44,2080.0000
524.72,2091.0000
525.00,2076.8000
525.29,2080.0000
525.57,2086.2000
525.85,2094.2000
526.13,2086.4000
526.42,2073.4000
526.70,2105.2000
526.98,2083.0000
527.26,2092.6000
527.54,2117.8000
527.83,2114.6000
528.11,2094.6000
528.39,2131.6000
528.67,2147.6000
528.95,2125.2000
529.24,2112.2000
529.52,2140.8000
529.80,2120.8000
530.08,2133.4000
530.36,2121.2000
530.65,2160.4000
530.93,2133.0000
531.21,2129.0000
531.49,2138.2000
531.77,2143.8000
532.05,2158.8000
532.34,2146.6000
532.62,2157.0000
532.90,2169.6000
533.18,2197.2000
533.46,2171.8000
533.74,2184.4000
534.03,2181.4000
534.31,2161.8000
534.59,2164.8000
534.87,2194.4000
535.15,2201.2000
535.43,2188.0000
535.71,2212.2000
536.00,2211.0000
536.28,2200.6000
536.56,2207.8000
536.84,2203.0000
537.12,2195.4000
537.40,2210.4000
537.68,2216.0000
537.97,2211.4000
538.25,2212.8000
538.53,2215.0000
538.81,2249.4000
539.09,2221.4000
539.37,2228.0000
539.65,2227.0000
539.93,2250.2000
540.21,2215.6000
540.50,2231.0000
540.78,2274.6000
541.06,2256.8000
541.34,2255.2000
541.62,2276.2000
541.90,2264.8000
542.18,2271.2000
542.46,2255.2000
542.74,2281.8000
543.02,2279.0000
543.30,2285.0000
543.58,2304.8000
543.87,2294.8000
544.15,2297.0000
544.43,2313.8000
544.71,2320.4000
544.99,2336.6000
545.27,2316.8000
545.55,2314.0000
545.83,2319.8000
546.11,2333.0000
546.39,2339.8000
546.67,2353.0000
546.95,2333.4000
547.23,2351.0000
547.51,2340.4000
547.79,2369.4000
548.07,2361.0000
548.35,2354.2000
548.63,2370.8000
548.91,2403.6000
549.20,2367.2000
549.48,2405.6000
549.76,2358.4000
550.04,2394.0000
550.32,2408.2000
550.60,2392.8000
550.88,2405.4000
551.16,2425.8000
551.44,2420.8000
551.72,2412.2000
552.00,2414.6000
552.28,2429.2000
552.56,2455.2000
552.84,2470.6000
553.12,2457.8000
553.40,2447.8000
553.68,2470.4000
553.96,2471.8000
554.24,2465.8000
554.52,2474.8000
554.80,2469.2000
555.08,2505.2000
555.36,2476.8000
555.64,2522.2000
555.92,2489.8000
556.19,2515.0000
556.47,2492.4000
556.75,2517.0000
557.03,2553.2000
557.31,2555.0000
557.59,2535.4000
557.87,2545.8000
558.15,2546.2000
558.43,2536.6000
558.71,2560.8000
558.99,2577.0000
559.27,2581.6000
559.55,2585.6000
559.83,2561.2000
560.11,2565.8000
560.39,2563.0000
560.67,2596.6000
560.95,2599.6000
561.23,2625.6000
561.50,2624.6000
561.78,2634.0000
562.06,2622.8000
562.34,2608.0000
562.62,2625.2000
562.90,2644.6000
563.18,2673.6000
563.46,2631.6000
563.74,2662.6000
564.02,2673.2000
564.30,2669.0000
564.57,2669.8000
564.85,2644.0000
565.13,2699.0000
565.41,2692.4000
565.69,2681.0000
565.97,2706.4000
566.25,2711.2000
566.53,2699.2000
566.81,2714.4000
567.08,2744.0000
567.36,2703.2000
567.64,2732.6000
567.92,2741.0000
568.20,2729.0000
568.48,2746.4000
568.76,2754.2000
569.04,2769.2000
569.31,2769.8000
569.59,2779.4000
569.87,2785.0000
570.15,2760.2000
570.43,2767.6000
570.71,2786.6000
570.99,2763.0000
571.26,2806.6000
571.54,2787.2000
571.82,2792.8000
572.10,2806.8000
572.38,2803.4000
572.66,2811.6000
572.93,2833.4000
573.21,2823.8000
573.49,2809.4000
573.77,2849.2000
574.05,2822.0000
574.32,2857.6000
574.60,2859.6000
574.88,2847.4000
575.16,2902.4000
575.44,2848.8000
575.71,2880.2000
575.99,2919.6000
576.27,2869.4000
576.55,2894.4000
576.83,2879.8000
577.10,2911.4000
577.38,2907.2000
577.66,2874.8000
577.94,2917.2000
578.22,2915.6000
578.49,2934.0000
578.77,2947.8000
579.05,2938.4000
579.33,2949.0000
579.60,2980.4000
579.88,2965.6000
580.16,2953.6000
580.44,2970.4000
580.72,2965.8000
580.99,2992.8000
581.27,2999.8000
581.55,3016.2000
581.83,3033.0000
582.10,3037.0000
582.38,3022.8000
582.66,3067.6000
582.94,3072.8000
583.21,3088.6000
583.49,3092.6000
583.77,3084.4000
584.04,3102.8000
584.32,3126.2000
584.60,3143.8000
584.88,3106.8000
585.15,3175.8000
585.43,3132.8000
585.71,3164.8000
585.98,3185.8000
586.26,3183.2000
586.54,3205.4000
586.82,3210.8000
587.09,3244.6000
587.37,3234.4000
587.65,3232.6000
587.92,3262.0000
588.20,3274.2000
588.48,3287.2000
588.75,3268.4000
589.03,3234.4000
589.31,3275.6000
589.59,3289.2000
589.86,3351.4000
590.14,3356.4000
590.42,3353.4000
590.69,3359.6000
590.97,3362.2000
591.25,3359.8000
591.52,3387.6000
591.80,3408.2000
592.08,3405.4000
592.35,3407.0000
592.63,3430.0000
592.91,3423.2000
593.18,3441.2000
593.46,3447.2000
593.73,3458.8000
594.01,3494.4000
594.29,3508.0000
594.56,3490.0000
594.84,3469.8000
595.12,3509.2000
595.39,3503.4000
595.67,3506.2000
595.95,3519.2000
596.22,3502.6000
596.50,3538.8000
596.77,3532.8000
597.05,3545.6000
597.33,3571.0000
597.60,3557.8000
597.88,3557.0000
598.15,3559.4000
598.43,3558.4000
598.71,3592.0000
598.98,3646.8000
599.26,3634.4000
599.53,3602.2000
599.81,3620.6000
600.09,3623.0000
600.36,3606.2000
600.64,3659.4000
600.91,3611.2000
601.19,3638.2000
601.47,3629.6000
601.74,3641.4000
602.02,3632.2000
602.29,3623.0000
602.57,3665.2000
602.84,3649.8000
603.12,3676.0000
603.40,3654.8000
603.67,3668.8000
603.95,3690.0000
604.22,3714.6000
604.50,3707.2000
604.77,3694.0000
605.05,3677.2000
605.32,3695.4000
605.60,3700.4000
605.87,3687.2000
606.15,3683.2000
606.42,3693.0000
606.70,3720.6000
606.98,3717.2000
607.25,3703.0000
607.53,3721.6000
607.80,3742.4000
608.08,3721.0000
608.35,3721.2000
608.63,3732.8000
608.90,3744.6000
609.18,3742.4000
609.45,3745.8000
609.73,3740.8000
610.00,3730.2000
610.28,3716.4000
610.55,3720.6000
610.83,3729.8000
611.10,3700.4000
611.38,3738.8000
611.65,3742.6000
611.93,3723.4000
612.20,3742.4000
612.48,3721.6000
612.75,3772.0000
613.03,3745.0000
613.30,3727.4000
613.57,3750.0000
613.85,3750.6000
614.12,3727.4000
614.40,3723.8000
614.67,3721.0000
614.95,3735.4000
615.22,3697.4000
615.50,3687.2000
615.77,3691.2000
616.05,3688.4000
616.32,3704.4000
616.59,3679.2000
616.87,3680.6000
617.14,3718.6000
617.42,3677.2000
617.69,3701.8000
617.97,3672.4000
618.24,3679.4000
618.51,3650.8000
618.79,3681.6000
619.06,3640.0000
619.34,3658.0000
619.61,3651.0000
619.88,3657.4000
620.16,3625.4000
620.43,3636.0000
620.71,3628.6000
620.98,3623.0000
621.26,3634.2000
621.53,3630.4000
621.80,3650.4000
622.08,3608.8000
622.35,3607.4000
622.62,3595.8000
622.90,3576.4000
623.17,3598.8000
623.45,3567.8000
623.72,3565.4000
623.99,3552.8000
624.27,3541.6000
624.54,3554.8000
624.81,3523.4000
625.09,3514.0000
625.36,3501.8000
625.64,3516.8000
625.91,3543.2000
626.18,3532.4000
626.46,3502.8000
626.73,3513.4000
627.00,3507.4000
627.28,3470.0000
627.55,3469.2000
627.82,3479.6000
628.10,3451.6000
628.37,3440.4000
628.64,3431.2000
628.92,3436.6000
629.19,3462.8000
629.46,3450.2000
629.74,3428.0000
630.01,3430.2000
630.28,3436.4000
630.56,3448.4000
630.83,3433.2000
631.10,3428.6000
631.37,3421.2000
631.65,3390.8000
631.92,3381.0000
632.19,3379.2000
632.47,3371.8000
632.74,3348.0000
633.01,3356.8000
633.28,3293.4000
633.56,3305.6000
633.83,3300.8000
634.10,3282.2000
634.38,3285.8000
634.65,3295.0000
634.92,3302.8000
635.19,3284.2000
635.47,3277.2000
635.74,3244.4000
636.01,3219.2000
636.28,3233.2000
636.56,3240.2000
636.83,3224.8000
637.10,3216.0000
637.37,3167.8000
637.65,3183.8000
637.92,3153.0000
638.19,3150.2000
638.46,3136.0000
638.74,3099.6000
639.01,3113.0000
639.28,3092.6000
639.55,3099.8000
639.83,3109.0000
640.10,3082.2000
640.37,3082.4000
640.64,3072.4000
640.91,3072.8000
641.19,3057.0000
641.46,3057.6000
641.73,3064.2000
642.00,3014.0000
642.28,3010.2000
642.55,3014.0000
642.82,2965.4000
643.09,2989.4000
643.36,2978.6000
643.63,2972.8000
643.91,2944.8000
644.18,2957.0000
644.45,2942.4000
644.72,2931.6000
644.99,2905.0000
645.27,2906.8000
645.54,2898.4000
645.81,2918.2000
646.08,2899.4000
646.35,2878.4000
646.62,2880.8000
646.90,2858.0000
647.17,2862.8000
647.44,2852.2000
647.71,2846.8000
647.98,2810.0000
648.25,2809.2000
648.52,2761.2000
648.80,2786.8000
649.07,2765.8000
649.34,2772.8000
649.61,2755.2000
649.88,2756.8000
650.15,2756.2000
650.42,2734.2000
650.69,2690.2000
650.97,2715.0000
651.24,2695.0000
651.51,2685.4000
651.78,2680.2000
652.05,2658.4000
652.32,2645.0000
652.59,2670.0000
652.86,2645.6000
653.13,2638.2000
653.41,2614.8000
653.68,2611.8000
653.95,2600.6000
654.22,2596.0000
654.49,2574.2000
654.76,2576.2000
655.03,2562.4000
655.30,2564.2000
655.57,2542.6000
655.84,2536.4000
656.11,2546.4000
656.38,2512.8000
656.66,2499.2000
656.93,2483.8000
657.20,2479.8000
657.47,2505.8000
657.74,2464.2000
658.01,2463.2000
658.28,2463.4000
658.55,2450.0000
658.82,2432.6000
659.09,2441.4000
659.36,2418.2000
659.63,2406.4000
659.90,2413.0000
660.17,2398.6000
660.44,2383.4000
660.71,2379.8000
660.98,2361.8000
661.25,2354.2000
661.52,2329.8000
661.79,2316.6000
662.06,2325.2000
662.33,2322.8000
662.60,2300.6000
662.87,2315.6000
663.14,2276.4000
663.41,2272.8000
663.68,2263.8000
663.95,2240.0000
664.22,2263.0000
664.49,2236.0000
664.76,2229.6000
665.03,2202.6000
665.30,2215.2000
665.57,2206.4000
665.84,2184.2000
666.11,2190.2000
666.38,2188.8000
666.65,2190.2000
666.92,2215.4000
667.19,2151.0000
667.46,2136.6000
667.73,2134.6000
668.00,2139.6000
668.27,2121.2000
668.54,2123.4000
668.81,2123.8000
669.08,2099.0000
669.35,2111.2000
669.62,2104.8000
669.89,2083.4000
670.16,2099.6000
670.42,2057.6000
670.69,2054.2000
670.96,2064.2000
671.23,2018.6000
671.50,2013.8000
671.77,2016.6000
672.04,2025.6000
672.31,1993.8000
672.58,1999.0000
672.85,1998.2000
673.12,1991.6000
673.39,1992.2000
673.65,1970.2000
673.92,1992.4000
674.19,1964.4000
674.46,1955.4000
674.73,1949.2000
675.00,1929.6000
675.27,1940.8000
675.54,1932.4000
675.81,1929.4000
676.07,1901.8000
676.34,1945.0000
676.61,1914.2000
676.88,1872.0000
677.15,1892.0000
677.42,1887.0000
677.69,1887.0000
677.96,1860.0000
678.22,1849.0000
678.49,1852.2000
678.76,1835.2000
679.03,1844.0000
679.30,1810.2000
679.57,1818.6000
679.83,1835.0000
680.10,1814.0000
680.37,1811.4000
680.64,1817.4000
680.91,1787.0000
681.18,1802.4000
681.44,1771.8000
681.71,1781.2000
681.98,1774.0000
682.25,1753.2000
682.52,1762.6000
682.79,1765.2000
683.05,1746.4000
683.32,1723.4000
683.59,1732.8000
683.86,1730.2000
684.13,1717.0000
684.39,1715.0000
684.66,1725.0000
684.93,1697.2000
685.20,1694.2000
685.47,1688.4000
685.73,1676.4000
686.00,1661.6000
686.27,1678.2000
686.54,1667.0000
686.80,1676.4000
687.07,1656.8000
687.34,1622.6000
687.61,1653.2000
687.88,1628.6000
688.14,1632.8000
688.41,1642.8000
688.68,1620.6000
688.95,1614.2000
689.21,1614.6000
689.48,1614.6000
689.75,1613.6000
690.02,1583.8000
690.28,1579.6000
690.55,1590.2000
690.82,1570.0000
691.08,1581.8000
691.35,1573.6000
691.62,1579.4000
691.89,1558.4000
692.15,1557.2000
692.42,1552.4000
692.69,1535.4000
692.95,1552.8000
693.22,1550.2000
693.49,1542.6000
693.76,1527.6000
694.02,1535.2000
694.29,1527.4000
694.56,1519.4000
694.82,1528.0000
695.09,1499.6000
695.36,1513.4000
695.62,1498.0000
695.89,1505.8000
696.16,1481.2000
696.43,1506.4000
696.69,1493.6000
696.96,1503.2000
697.23,1478.8000
697.49,1477.2000
697.76,1484.8000
698.03,1463.4000
698.29,1455.2000
698.56,1469.6000
698.82,1469.0000
699.09,1466.8000
699.36,1452.2000
699.62,1444.6000
699.89,1455.6000
700.16,1437.0000
700.42,1448.0000
700.69,1452.6000
700.96,1440.0000
701.22,1439.0000
701.49,1439.4000
701.75,1442.8000
702.02,1424.8000
702.29,1423.0000
702.55,1410.0000
702.82,1418.6000
703.09,1416.2000
703.35,1421.8000
703.62,1404.6000
703.88,1409.2000
704.15,1400.6000
704.42,1407.8000
704.68,1389.0000
704.95,1403.4000
705.21,1401.2000
705.48,1403.8000
705.75,1375.0000
706.01,1377.8000
706.28,1376.0000
706.54,1376.4000
706.81,1386.0000
707.07,1360.0000
707.34,1369.4000
707.61,1387.4000
707.87,1377.2000
708.14,1361.8000
708.40,1370.2000
708.67,1360.0000
708.93,1357.4000
709.20,1350.8000
709.46,1362.6000
709.73,1367.6000
709.99,1371.0000
710.26,1335.8000
710.53,1341.6000
710.79,1329.8000
711.06,1336.4000
711.32,1442.2000
711.59,1358.6000
711.85,1362.8000
712.12,1341.2000
712.38,1343.2000
712.65,1343.2000
712.91,1333.4000
713.18,1349.2000
713.44,1338.8000
713.71,1344.6000
713.97,1338.6000
714.24,1323.8000
714.50,1313.0000
714.77,1316.6000
715.03,1331.2000
715.30,1336.0000
715.56,1323.6000
715.83,1324.4000
716.09,1322.6000
716.36,1339.4000
716.62,1310.2000
716.89,1298.8000
717.15,1290.4000
717.42,1285.4000
717.68,1285.0000
717.94,1262.8000
718.21,1287.2000
718.47,1306.2000
718.74,1275.6000
719.00,1290.2000
719.27,1267.4000
719.53,1282.2000
719.80,1291.2000
720.06,1277.6000
720.32,1298.6000
720.59,1291.0000
720.85,1297.2000
721.12,1278.8000
721.38,1326.4000
721.65,1297.4000
721.91,1305.6000
722.17,1301.6000
722.44,1301.2000
722.70,1292.8000
722.97,1300.8000
723.23,1293.0000
723.49,1259.6000
723.76,1281.8000
724.02,1297.2000
724.29,1285.4000
724.55,1273.4000
724.81,1307.6000
725.08,1289.4000
725.34,1294.4000
725.61,1293.6000
725.87,1294.4000
726.13,1286.6000
726.40,1296.0000
726.66,1301.8000
726.92,1280.0000
727.19,1274.8000
727.45,1277.6000
727.71,1275.8000
727.98,1289.8000
728.24,1308.0000
728.51,1285.4000
728.77,1283.0000
729.03,1290.8000
729.30,1301.0000
729.56,1290.4000
729.82,1308.8000
730.09,1305.2000
730.35,1290.6000
730.61,1297.0000
730.88,1300.2000
731.14,1300.4000
731.40,1307.0000
731.67,1315.6000
731.93,1315.6000
732.19,1335.8000
732.45,1333.6000
732.72,1320.4000
732.98,1318.2000
733.24,1327.2000
733.51,1324.0000
733.77,1334.4000
734.03,1337.8000
734.30,1335.4000
734.56,1347.4000
734.82,1320.6000
735.08,1334.2000
735.35,1338.8000
735.61,1347.0000
735.87,1347.2000
736.14,1365.6000
736.40,1352.0000
736.66,1341.6000
736.92,1330.4000
737.19,1343.4000
737.45,1351.2000
737.71,1344.2000
737.97,1341.4000
738.24,1349.0000
738.50,1344.6000
738.76,1341.4000
739.02,1344.6000
739.29,1350.6000
739.55,1365.6000
739.81,1340.8000
740.07,1366.4000
740.33,1351.2000
740.60,1337.0000
740.86,1359.0000
741.12,1350.0000
741.38,1348.2000
741.65,1354.0000
741.91,1343.4000
742.17,1364.4000
742.43,1356.2000
742.69,1342.2000
742.96,1380.8000
743.22,1379.8000
743.48,1374.4000
743.74,1375.0000
744.00,1367.6000
744.26,1369.4000
744.53,1363.0000
744.79,1358.6000
745.05,1353.8000
745.31,1367.2000
745.57,1366.4000
745.84,1374.4000
746.10,1355.8000
746.36,1376.4000
746.62,1371.2000
746.88,1370.2000
747.14,1378.6000
747.40,1370.0000
747.67,1360.8000
747.93,1367.2000
748.19,1364.0000
748.45,1385.0000
748.71,1379.4000
748.97,1376.6000
749.23,1384.0000
749.50,1386.0000
749.76,1365.2000
750.02,1362.0000
750.28,1372.2000
750.54,1352.0000
750.80,1363.4000
751.06,1336.8000
751.32,1370.0000
751.59,1364.4000
751.85,1374.4000
752.11,1377.8000
752.37,1369.4000
752.63,1379.0000
752.89,1379.6000
753.15,1385.0000
753.41,1365.2000
753.67,1373.6000
753.93,1379.4000
754.19,1383.2000
754.46,1389.2000
754.72,1357.2000
754.98,1365.6000
755.24,1372.0000
755.50,1351.2000
755.76,1372.2000
756.02,1366.4000
756.28,1353.0000
756.54,1364.4000
756.80,1382.4000
757.06,1371.4000
757.32,1356.0000
757.58,1361.8000
757.84,1371.2000
758.10,1354.0000
758.36,1348.8000
758.62,1338.4000
758.88,1300.2000
759.14,1258.0000
759.40,1197.8000
759.66,1117.8000
759.92,1089.4000
760.18,1065.4000
760.44,1061.2000
760.70,1088.6000
760.96,1102.2000
761.22,1163.4000
761.48,1176.8000
761.74,1199.0000
762.00,1176.8000
762.26,1180.8000
762.52,1154.2000
762.78,1148.2000
763.04,1149.0000
763.30,1162.8000
763.56,1146.0000
763.82,1156.2000
764.08,1191.2000
764.34,1191.8000
764.60,1201.6000
764.86,1211.8000
765.12,1223.6000
765.38,1224.6000
765.64,1254.0000
765.90,1275.4000
766.16,1266.8000
766.42,1277.8000
766.68,1283.4000
766.94,1296.0000
767.20,1308.0000
767.46,1306.6000
767.72,1297.2000
767.98,1323.0000
768.23,1313.0000
768.49,1319.2000
768.75,1330.8000
769.01,1338.8000
769.27,1314.4000
769.53,1331.0000
769.79,1335.0000
770.05,1322.0000
770.31,1324.4000
770.57,1344.8000
770.83,1322.4000
771.08,1324.0000
771.34,1309.2000
771.60,1338.8000
771.86,1329.6000
772.12,1321.2000
772.38,1340.2000
772.64,1325.4000
772.90,1320.0000
773.16,1339.0000
773.41,1313.0000
773.67,1304.4000
773.93,1317.4000
774.19,1308.6000
774.45,1324.8000
774.71,1330.0000
774.97,1305.0000
775.22,1322.0000
775.48,1325.6000
775.74,1314.6000
776.00,1320.8000
776.26,1306.4000
776.52,1310.2000
776.77,1309.8000
777.03,1313.8000
777.29,1301.8000
777.55,1297.8000
777.81,1300.2000
778.07,1297.2000
778.32,1301.6000
778.58,1297.0000
778.84,1295.4000
779.10,1307.4000
779.36,1293.8000
779.61,1301.8000
779.87,1294.6000
780.13,1291.0000
780.39,1300.0000
780.65,1286.2000
780.90,1297.8000
781.16,1302.6000
781.42,1294.6000
781.68,1295.4000
781.94,1302.6000
782.19,1291.4000
782.45,1285.6000
782.71,1294.0000
782.97,1295.4000
783.22,1291.4000
783.48,1278.6000
783.74,1287.2000
784.00,1284.8000
784.25,1281.4000
784.51,1262.0000
784.77,1295.6000
785.03,1278.6000
785.28,1278.2000
785.54,1269.4000
785.80,1286.2000
786.06,1266.8000
786.31,1263.0000
786.57,1279.4000
786.83,1280.8000
787.08,1274.6000
787.34,1260.6000
787.60,1277.4000
787.86,1271.8000
788.11,1275.6000
788.37,1267.2000
788.63,1264.6000
788.88,1269.6000
789.14,1237.2000
789.40,1253.6000
789.65,1249.2000
789.91,1262.2000
790.17,1247.4000
790.42,1230.2000
790.68,1258.6000
790.94,1232.8000
791.20,1269.6000
791.45,1260.2000
791.71,1262.8000
791.97,1236.6000
792.22,1255.4000
792.48,1249.0000
792.73,1219.4000
792.99,1252.6000
793.25,1226.8000
793.50,1241.8000
793.76,1235.2000
794.02,1226.0000
794.27,1227.0000
794.53,1237.0000
794.79,1243.0000
795.04,1242.4000
795.30,1235.0000
795.55,1235.6000
795.81,1210.4000
796.07,1230.4000
796.32,1229.0000
796.58,1225.2000
796.84,1226.4000
797.09,1234.6000
797.35,1227.0000
797.60,1229.2000
797.86,1229.8000
798.12,1244.4000
798.37,1244.2000
798.63,1225.8000
798.88,1223.6000
799.14,1223.4000
799.39,1206.8000
799.65,1227.4000
799.91,1201.0000
800.16,1217.6000
800.42,1218.8000
800.67,1222.0000
800.93,1213.0000
801.18,1202.8000
801.44,1211.4000
801.70,1220.8000
801.95,1215.2000
802.21,1208.6000
802.46,1198.2000
802.72,1196.6000
802.97,1217.6000
803.23,1212.2000
803.48,1209.0000
803.74,1196.4000
803.99,1194.0000
804.25,1193.8000
804.50,1218.6000
804.76,1197.8000
805.02,1197.2000
805.27,1211.2000
805.53,1227.0000
805.78,1181.0000
806.04,1228.8000
806.29,1181.6000
806.55,1211.2000
806.80,1197.4000
807.06,1217.6000
807.31,1197.6000
807.56,1207.8000
807.82,1219.8000
808.07,1199.2000
808.33,1188.4000
808.58,1196.8000
808.84,1202.6000
809.09,1172.6000
809.35,1193.4000
809.60,1172.4000
809.86,1171.0000
810.11,1184.8000
810.37,1176.4000
810.62,1172.8000
810.88,1181.2000
811.13,1181.4000
811.38,1168.0000
811.64,1175.8000
811.89,1172.0000
812.15,1178.0000
812.40,1165.2000
812.66,1163.0000
812.91,1162.6000
813.16,1128.2000
813.42,1140.8000
813.67,1145.4000
813.93,1125.6000
814.18,1132.4000
814.44,1138.8000
814.69,1133.6000
814.94,1113.2000
815.20,1106.4000
815.45,1116.6000
815.71,1116.0000
815.96,1095.0000
816.21,1107.2000
816.47,1105.0000
816.72,1116.4000
816.97,1113.4000
817.23,1110.8000
817.48,1099.6000
817.74,1106.2000
817.99,1109.6000
818.24,1138.4000
818.50,1112.4000
818.75,1140.4000
819.00,1114.8000
819.26,1123.0000
819.51,1145.6000
819.76,1110.2000
820.02,1128.4000
820.27,1139.8000
820.52,1131.4000
820.78,1133.0000
821.03,1145.2000
821.28,1131.8000
821.54,1135.2000
821.79,1117.2000
822.04,1110.4000
822.30,1088.4000
822.55,1088.0000
822.80,1083.6000
823.06,1085.8000
823.31,1103.8000
823.56,1121.0000
823.82,1127.0000
824.07,1143.2000
824.32,1130.6000
824.57,1143.0000
824.83,1135.2000
825.08,1135.8000
825.33,1132.4000
825.59,1111.2000
825.84,1119.6000
826.09,1128.2000
826.34,1128.8000
826.60,1132.4000
826.85,1124.6000
827.10,1099.6000
827.35,1123.0000
827.61,1089.6000
827.86,1113.0000
828.11,1116.2000
828.36,1091.4000
828.62,1126.4000
828.87,1118.8000
829.12,1109.6000
829.37,1122.6000
829.63,1103.6000
829.88,1124.6000
830.13,1112.6000
830.38,1125.4000
830.63,1097.8000
830.89,1100.0000
831.14,1114.2000
831.39,1116.0000
831.64,1114.0000
831.89,1120.6000
832.15,1094.2000
832.40,1117.4000
832.65,1125.0000
832.90,1111.6000
833.15,1109.2000
833.41,1127.2000
833.66,1135.0000
833.91,1121.6000
834.16,1120.4000
834.41,1132.8000
834.67,1110.4000
834.92,1126.0000
835.17,1115.4000
835.42,1116.8000
835.67,1125.0000
835.92,1119.2000
836.17,1117.8000
836.43,1129.6000
836.68,1134.2000
836.93,1116.8000
837.18,1125.8000
837.43,1111.0000
837.68,1120.4000
837.93,1115.2000
838.19,1113.0000
838.44,1122.4000
838.69,1119.2000
838.94,1117.2000
839.19,1112.8000
839.44,1118.2000
839.69,1128.2000
839.94,1117.2000
840.20,1127.8000
840.45,1137.0000
840.70,1131.2000
840.95,1117.4000
841.20,1109.6000
841.45,1099.6000
841.70,1130.0000
841.95,1124.4000
842.20,1119.6000
842.45,1140.0000
842.70,1114.0000
842.95,1107.0000
843.21,1109.4000
843.46,1108.4000
843.71,1121.8000
843.96,1127.8000
844.21,1109.0000
844.46,1111.6000
844.71,1114.6000
844.96,1130.8000
845.21,1110.4000
845.46,1107.4000
845.71,1113.8000
845.96,1124.6000
846.21,1111.8000
846.46,1121.0000
846.71,1109.6000
846.96,1095.8000
847.21,1116.4000
847.46,1122.2000
847.71,1111.8000
847.96,1106.6000
848.21,1102.2000
848.46,1112.8000
848.71,1120.0000
848.96,1101.8000
849.21,1109.8000
849.46,1089.0000
849.71,1092.4000
849.96,1083.2000
850.21,1091.8000
850.46,1111.6000
850.71,1085.4000
850.96,1083.8000
851.21,1094.8000
851.46,1098.0000
851.71,1098.2000
851.96,1088.2000
852.21,1100.4000
852.46,1089.4000
852.71,1089.2000
852.96,1090.0000
853.21,1088.2000
853.46,1076.0000
853.71,1072.6000
853.96,1058.0000
854.21,1073.2000
854.46,1099.4000
854.70,1092.0000
854.95,1086.0000
855.20,1095.6000
855.45,1099.2000
855.70,1092.6000
855.95,1091.8000
856.20,1104.4000
856.45,1087.8000
856.70,1095.4000
856.95,1098.8000
857.20,1091.0000
857.44,1104.4000
857.69,1097.4000
857.94,1107.0000
858.19,1098.4000
858.44,1091.4000
858.69,1097.0000
858.94,1104.2000
859.19,1080.8000
859.44,1089.2000
859.68,1105.8000
859.93,1088.2000
860.18,1097.4000
860.43,1085.8000
860.68,1111.6000
860.93,1103.4000
861.18,1100.0000
861.42,1105.2000
861.67,1098.6000
861.92,1089.4000
862.17,1097.8000
862.42,1100.6000
862.67,1097.8000
862.91,1094.0000
863.16,1100.4000
863.41,1095.0000
863.66,1093.8000
863.91,1105.8000
864.16,1096.2000
864.40,1073.2000
864.65,1101.2000
864.90,1079.6000
865.15,1073.0000
865.40,1065.2000
865.64,1071.6000
865.89,1065.4000
866.14,1068.8000
866.39,1061.0000
866.64,1068.0000
866.88,1069.8000
867.13,1092.6000
867.38,1094.8000
867.63,1074.4000
867.87,1085.0000
868.12,1089.8000
868.37,1083.6000
868.62,1072.4000
868.86,1075.4000
869.11,1066.8000
869.36,1085.2000
869.61,1085.8000
869.85,1082.4000
870.10,1101.6000
870.35,1074.4000
870.60,1090.8000
870.84,1078.2000
871.09,1079.8000
871.34,1079.4000
871.59,1079.4000
871.83,1082.8000
872.08,1088.8000
872.33,1054.4000
872.57,1083.4000
872.82,1079.8000
873.07,1087.6000
873.32,1090.6000
873.56,1076.8000
873.81,1080.2000
874.06,1079.2000
874.30,1076.2000
874.55,1081.0000
874.80,1061.4000
875.04,1079.0000
875.29,1071.0000
875.54,1080.2000
875.78,1064.0000
876.03,1071.0000
876.28,1072.0000
876.52,1057.6000
876.77,1060.4000
877.02,1075.0000
877.26,1068.0000
877.51,1068.0000
877.76,1066.8000
878.00,1076.8000
878.25,1064.4000
878.50,1079.0000
878.74,1067.8000
878.99,1062.0000
879.23,1063.6000
879.48,1066.4000
879.73,1076.8000
879.97,1059.4000
880.22,1052.4000
880.47,1052.2000
880.71,1049.0000
880.96,1083.4000
881.20,1056.0000
881.45,1069.0000
881.70,1068.8000
881.94,1063.4000
882.19,1065.6000
882.43,1069.2000
882.68,1059.4000
882.92,1076.6000
883.17,1063.2000
883.42,1071.0000
883.66,1056.2000
883.91,1055.2000
884.15,1044.0000
884.40,1067.4000
884.64,1052.0000
884.89,1072.8000
885.14,1058.6000
885.38,1065.6000
885.63,1050.6000
885.87,1053.2000
886.12,1054.6000
886.36,1060.0000
886.61,1052.0000
886.85,1056.2000
887.10,1050.8000
887.34,1047.2000
887.59,1049.6000
887.83,1050.2000
888.08,1065.0000
888.32,1046.0000
888.57,1064.2000
888.81,1065.8000
889.06,1061.8000
889.30,1035.0000
889.55,1040.8000
889.79,1048.6000
890.04,1053.4000
890.28,1051.4000
890.53,1046.2000
890.77,1054.2000
891.02,1046.8000
891.26,1058.0000
891.51,1048.4000
891.75,1047.6000
892.00,1049.8000
892.24,1037.8000
892.49,1038.2000
892.73,1041.8000
892.98,1047.2000
893.22,1029.6000
893.47,1028.8000
893.71,1035.8000
893.95,1037.8000
894.20,1035.8000
894.44,1020.4000
894.69,1053.4000
894.93,1055.2000
895.18,1033.0000
895.42,1036.2000
895.66,1020.8000
895.91,1009.8000
896.15,1011.0000
896.40,1024.4000
896.64,1024.0000
896.88,1004.0000
897.13,1015.8000
897.37,1002.0000
897.62,1022.0000
897.86,1023.2000
898.10,1003.8000
898.35,999.6000
898.59,999.2000
898.84,1004.4000
899.08,1006.4000
899.32,1012.8000
899.57,1015.2000
899.81,993.6000
900.05,991.4000
900.30,996.8000
900.54,1008.0000
900.78,1020.6000
901.03,1017.4000
901.27,1009.0000
901.52,1013.0000
901.76,1001.0000
902.00,1013.6000
902.25,1009.6000
902.49,1006.8000
902.73,1015.4000
902.98,1013.4000
903.22,1019.2000
903.46,1015.6000
903.70,1028.6000
903.95,1017.4000
904.19,1031.6000
904.43,1037.4000
904.68,1010.2000
904.92,1010.6000
905.16,1015.0000
905.41,1017.2000
905.65,1007.8000
905.89,1011.0000
906.13,1023.0000
906.38,1000.4000
906.62,1011.2000
906.86,1002.6000
907.11,985.4000
907.35,992.4000
907.59,1008.4000
907.83,1018.8000
908.08,993.6000
908.32,992.8000
908.56,1000.6000
908.80,1003.6000
909.05,1013.8000
909.29,1004.8000
909.53,1005.8000
909.77,993.8000
910.02,987.4000
910.26,1016.8000
910.50,993.0000
910.74,993.2000
910.98,996.2000
911.23,1001.8000
911.47,1002.4000
911.71,1002.0000
911.95,978.0000
912.20,994.6000
912.44,983.6000
912.68,980.2000
912.92,994.8000
913.16,983.6000
913.41,973.0000
913.65,995.0000
913.89,997.6000
914.13,987.0000
914.37,984.4000
914.61,996.0000
914.86,978.8000
915.10,982.2000
915.34,983.2000
915.58,982.4000
915.82,976.2000
916.06,981.6000
916.31,992.4000
916.55,987.8000
916.79,1001.4000
917.03,980.8000
917.27,978.8000
917.51,988.4000
917.75,990.2000
918.00,990.0000
918.24,1003.2000
918.48,1001.0000
918.72,1031.8000
918.96,993.2000
919.20,1007.4000
919.44,1015.0000
919.68,1026.8000
919.92,999.0000
920.17,995.2000
920.41,996.4000
920.65,1011.4000
920.89,989.4000
921.13,993.0000
921.37,1004.6000
921.61,974.2000
921.85,993.8000
922.09,994.0000
922.33,999.8000
922.57,998.0000
922.81,965.2000
923.05,986.8000
923.30,977.4000
923.54,979.4000
923.78,980.2000
924.02,996.4000
924.26,993.0000
924.50,981.8000
924.74,989.4000
924.98,981.4000
925.22,993.4000
925.46,983.2000
925.70,986.6000
925.94,995.4000
926.18,989.6000
926.42,991.6000
926.66,992.2000
926.90,978.6000
927.14,975.8000
927.38,966.4000
927.62,958.6000
927.86,991.2000
928.10,987.0000
928.34,960.0000
928.58,956.4000
928.82,966.8000
929.06,968.0000
929.30,982.8000
929.54,958.2000
929.78,945.4000
930.02,940.0000
930.26,952.2000
930.50,946.6000
930.74,960.0000
930.98,945.4000
931.22,949.8000
931.46,945.8000
931.70,941.6000
931.94,938.6000
932.17,942.8000
932.41,943.6000
932.65,947.2000
932.89,935.8000
933.13,929.6000
933.37,933.6000
933.61,912.4000
933.85,925.8000
934.09,926.0000
934.33,931.4000
934.57,925.4000
934.81,929.6000
935.05,941.2000
935.28,930.2000
935.52,930.6000
935.76,923.4000
936.00,936.2000
936.24,935.4000
936.48,938.2000
936.72,926.8000
936.96,930.8000
937.19,927.4000
937.43,952.4000
937.67,933.4000
937.91,935.6000
938.15,934.4000
938.39,941.0000
938.63,939.8000
938.86,938.4000
939.10,950.0000
939.34,933.8000
939.58,934.0000
939.82,925.8000
940.06,932.2000
940.30,935.2000
940.53,917.4000
940.77,927.6000
941.01,930.8000
941.25,930.2000
